MORPHOLOGY AT STRAIN =    1.0000  FOR PHASE  1
   1.071   2.298   0.406  <-- AXES OF PHASE ELLIPSOID
 -154.11   90.07   90.02  <-- EULER ANGLES OF PHASE ELLIPSOID (deg)
   1.096   2.456   0.396  <-- AVERAGE OF GRAIN AXES FOR PHASE
   0.158   0.224   0.264  <-- STANDARD DEV OF AVG GRAIN AXES FOR PHASE
B       500
 -163.94  123.31   60.26     0.002000       1.0465    1.9978    0.4798
 -153.19  110.96  100.83     0.002000       1.0530    2.9598    0.3174
 -154.65   92.81  108.43     0.002000       1.0799    3.1444    0.2908
 -154.03   90.38   87.85     0.002000       1.3328    2.1077    0.3549
 -153.79   92.34   99.19     0.002000       1.2563    2.2506    0.3525
 -154.87   86.25   87.14     0.002000       1.0003    3.7625    0.2608
 -149.95   88.38   87.51     0.002000       1.1825    1.8608    0.4556
 -154.14   77.73   82.24     0.002000       1.0264    3.4480    0.2782
 -154.74   88.91   81.05     0.002000       1.3343    2.3257    0.3199
 -157.52   67.94  107.56     0.002000       1.0363    2.8861    0.3324
 -155.09   89.63  104.23     0.002000       1.0076    3.4252    0.2856
 -155.06   95.25   90.60     0.002000       1.0003    3.7573    0.2611
 -155.30   84.53   82.30     0.002000       0.9372    2.0271    0.5261
 -153.20  100.82  101.92     0.002000       1.1336    1.8232    0.4838
 -155.70  100.96   94.01     0.002000       0.7494    2.4743    0.5382
 -144.94   85.95   82.82     0.002000       1.0484    1.7963    0.5373
 -155.04   85.07   96.79     0.002000       1.0004    3.7133    0.2645
 -159.72   51.84  106.28     0.002000       0.7714    2.3377    0.5571
 -151.47   91.63  100.40     0.002000       0.7157    2.4604    0.5699
 -156.31  108.64   81.76     0.002000       1.0019    3.3259    0.2963
 -152.68   70.82   77.56     0.002000       0.9320    2.2573    0.4739
 -152.65  104.56  104.88     0.002000       1.1092    3.0240    0.2947
 -155.59   96.99   84.30     0.002000       1.0005    3.6667    0.2678
 -154.18   96.65  106.93     0.002000       1.1021    3.1070    0.2882
 -153.42   90.48   91.09     0.002000       1.2678    2.2234    0.3539
 -162.67  109.09  100.05     0.002000       1.1846    1.5828    0.5350
 -155.98   92.67   94.47     0.002000       1.2053    2.3631    0.3487
 -153.83   87.71   74.59     0.002000       1.3942    2.2939    0.3103
 -142.57   87.27   82.33     0.002000       1.0101    1.8303    0.5478
 -156.24   91.80  110.31     0.002000       1.3993    2.2673    0.3121
 -155.68   92.83   93.40     0.002000       1.1972    2.3108    0.3595
 -152.67   78.80   68.29     0.002000       1.2203    2.4919    0.3261
 -153.64   84.99   75.00     0.002000       1.4007    2.1444    0.3310
 -144.69   82.86   72.25     0.002000       0.9805    1.9083    0.5407
 -154.93   88.64  112.19     0.002000       1.4311    2.4138    0.2865
 -151.92   74.75   71.88     0.002000       1.1148    2.0009    0.4478
 -153.08  102.51  107.71     0.002000       1.1480    2.8161    0.3060
 -154.65  127.77   88.20     0.002000       0.7971    2.7957    0.4477
 -156.11   83.88   87.90     0.002000       0.8401    2.4600    0.4825
 -153.33   84.12   84.58     0.002000       1.1287    1.7502    0.5066
 -155.19   56.96   89.20     0.002000       0.8950    2.9904    0.3705
 -156.00   83.17   84.01     0.002000       1.2285    2.2865    0.3537
 -153.73   92.06   96.34     0.002000       1.2793    2.2357    0.3483
 -156.03   95.75   68.90     0.002000       1.4378    2.3639    0.2911
 -154.35   92.36   99.03     0.002000       1.4014    2.1900    0.3238
 -152.97   86.86   94.04     0.002000       1.1181    1.6510    0.5431
 -159.35  121.74   74.79     0.002000       0.9793    2.7647    0.3677
 -153.48   93.34   96.62     0.002000       1.2674    2.2709    0.3462
 -154.71   90.52   69.40     0.002000       1.4405    2.3521    0.2922
 -156.25   99.33   66.18     0.002000       1.2016    2.7635    0.2983
 -156.26  101.42   77.84     0.002000       1.0018    3.4086    0.2887
 -155.13   91.09   94.92     0.002000       1.2229    2.4233    0.3351
 -154.46  102.66  100.04     0.002000       1.0724    1.9127    0.4867
 -154.44   84.76   76.50     0.002000       1.0312    3.3875    0.2821
 -156.23   56.63   95.77     0.002000       0.7768    2.8107    0.4569
 -148.28   98.50  103.74     0.002000       0.7567    2.2311    0.5961
 -150.75   79.35   80.05     0.002000       0.8672    2.3802    0.4860
 -153.63   84.53   66.21     0.002000       1.2735    2.5917    0.2999
 -155.34   92.16   87.26     0.002000       1.0001    3.7635    0.2606
 -156.89   96.66   85.73     0.002000       0.9553    1.8748    0.5586
 -155.16   90.96   97.09     0.002000       1.0005    3.6789    0.2669
 -153.67   91.03   92.55     0.002000       1.3206    2.2002    0.3428
 -150.56   94.22   87.61     0.002000       0.8310    2.4698    0.4896
 -155.83   87.28   81.84     0.002000       1.0013    3.5945    0.2724
 -154.84   89.32   86.34     0.002000       1.3003    2.2123    0.3459
 -154.39   92.29   99.72     0.002000       1.3501    2.2692    0.3241
 -153.93   98.11  107.39     0.002000       1.1231    3.0192    0.2912
 -153.52  107.46  102.86     0.002000       1.0226    2.2216    0.4382
 -152.79  114.03   98.93     0.002000       1.0367    3.0020    0.3182
 -156.18  101.32   96.05     0.002000       0.8329    2.1959    0.5459
 -153.37   87.68   88.16     0.002000       1.1184    1.7260    0.5187
 -152.53   92.67   93.69     0.002000       1.2353    2.1824    0.3703
 -155.30   81.40   98.09     0.002000       1.0008    3.6084    0.2725
 -154.11   85.59   86.28     0.002000       0.9633    2.4837    0.4171
 -155.04  102.39   94.15     0.002000       1.0150    3.5650    0.2714
 -155.39   86.11   96.44     0.002000       1.0003    3.6882    0.2662
 -154.65   91.03  112.63     0.002000       1.1928    2.8580    0.2901
 -154.54   90.89  113.32     0.002000       1.3715    2.5252    0.2857
 -154.12   91.67   97.90     0.002000       1.3270    2.3349    0.3206
 -153.77   97.23  108.89     0.002000       1.1444    2.9454    0.2932
 -153.16   93.40  101.65     0.002000       1.3418    2.2211    0.3337
 -154.64   77.59   90.14     0.002000       1.0023    3.6418    0.2694
 -155.78   81.25  105.41     0.002000       1.0137    3.3203    0.2935
 -155.30   91.63   97.95     0.002000       1.3054    2.2194    0.3432
 -155.24   87.60   89.06     0.002000       1.0001    3.7678    0.2603
 -154.00   91.33   99.52     0.002000       1.2717    2.2841    0.3427
 -152.18   92.27   90.63     0.002000       1.2476    2.1414    0.3739
 -157.21   82.03   88.11     0.002000       0.8602    2.4670    0.4695
 -151.21  100.67  105.59     0.002000       1.2063    1.9235    0.4311
 -150.47   84.95   80.70     0.002000       1.1349    1.7555    0.5039
 -154.77   93.44  109.25     0.002000       1.0968    3.0245    0.2979
 -156.05   77.16  101.05     0.002000       1.0018    3.4401    0.2862
 -142.29   92.07   96.01     0.002000       1.0083    1.5730    0.6390
 -152.11  111.01  105.96     0.002000       1.0747    2.5672    0.3599
 -153.98   92.54   94.62     0.002000       1.2446    2.2944    0.3488
 -153.42   80.39   73.44     0.002000       1.1053    3.0721    0.2909
 -159.33  107.66   66.40     0.002000       1.0175    2.7822    0.3507
 -150.07   93.42   94.12     0.002000       1.0320    2.1973    0.4434
 -147.97   93.48   72.18     0.002000       0.8031    1.8926    0.6642
 -149.77   93.33   91.66     0.002000       1.1698    1.8972    0.4522
 -151.44   97.90   99.67     0.002000       0.9519    2.3997    0.4387
 -151.17   91.79   92.07     0.002000       1.2233    2.0824    0.3926
 -154.65   90.18  100.63     0.002000       1.4106    2.2911    0.3069
 -154.44   89.53   64.96     0.002000       1.3452    2.5368    0.2900
 -155.53   91.10   91.87     0.002000       1.0450    1.8380    0.5206
 -155.02   91.76   91.53     0.002000       1.2483    2.2760    0.3502
 -154.01   74.42   86.30     0.002000       1.0128    3.5045    0.2775
 -154.75   90.38   73.23     0.002000       1.4387    2.3047    0.2988
 -151.89   97.56  103.18     0.002000       1.3265    2.0334    0.3699
 -153.66   89.41   84.39     0.002000       1.2523    2.1791    0.3657
 -153.74   84.94   69.20     0.002000       1.1462    2.9796    0.2893
 -155.50  120.12   87.47     0.002000       0.7443    2.8132    0.4760
 -161.57   52.44  113.72     0.002000       0.8898    2.0054    0.5638
 -153.94  102.41  100.15     0.002000       0.9520    2.1057    0.4980
 -156.50   97.46   96.28     0.002000       1.4301    1.9786    0.3515
 -155.24   92.05   70.15     0.002000       1.4742    2.2486    0.2988
 -150.05   97.54   98.60     0.002000       0.8703    2.4552    0.4698
 -157.13  103.64   67.18     0.002000       1.1126    2.8420    0.3135
 -152.61   78.93   74.35     0.002000       1.0311    1.9343    0.5016
 -152.62  112.48  101.99     0.002000       1.0542    2.8677    0.3277
 -154.49   79.62   83.83     0.002000       1.0127    3.5519    0.2734
 -150.13   90.92   90.29     0.002000       1.1597    1.8039    0.4794
 -152.98   54.95   87.58     0.002000       0.8452    2.9068    0.4052
 -155.11  106.71   77.22     0.002000       0.7252    2.5245    0.5476
 -153.63   79.13   75.90     0.002000       1.0790    3.1740    0.2881
 -154.93  119.77   88.24     0.002000       0.9819    3.0634    0.3297
 -145.35   88.81   87.90     0.002000       1.0005    2.0585    0.4910
 -153.54   80.30   67.52     0.002000       1.2462    2.4382    0.3262
 -151.73  102.28  109.53     0.002000       1.2035    2.0896    0.3966
 -154.66   90.72  104.52     0.002000       1.0140    3.4253    0.2839
 -150.06   86.98   83.55     0.002000       1.1754    1.9071    0.4476
 -156.77   86.59   85.91     0.002000       0.8840    2.3700    0.4759
 -155.91   88.16   94.91     0.002000       1.0106    1.8461    0.5362
 -159.83  117.99   69.96     0.002000       1.0205    2.6462    0.3689
 -152.13   75.98   68.92     0.002000       1.1824    2.2451    0.3748
 -149.97   77.29  103.24     0.002000       0.7917    2.2286    0.5714
 -160.05  126.28   68.16     0.002000       0.8493    2.2635    0.5230
 -153.41   89.86   92.80     0.002000       1.2715    2.2084    0.3552
 -163.92   95.39   77.22     0.002000       1.0025    1.1841    0.8510
 -153.55  106.20  103.67     0.002000       1.0497    2.1801    0.4350
 -155.94   79.80  106.79     0.002000       1.0286    3.2580    0.2950
 -157.10  102.20   65.52     0.002000       1.1846    2.6762    0.3128
 -152.40   96.05   97.04     0.002000       1.3228    2.0254    0.3722
 -154.74   72.40   90.40     0.002000       1.0037    3.4399    0.2857
 -153.03   85.49   76.07     0.002000       1.1183    1.8236    0.4906
 -153.65   87.82   79.56     0.002000       1.2853    2.2680    0.3416
 -154.55   89.94  100.77     0.002000       1.3502    2.3496    0.3128
 -142.64   87.90   79.31     0.002000       1.0747    1.6910    0.5576
 -153.95   90.22   90.18     0.002000       1.0999    1.7080    0.5331
 -145.53   97.79  106.50     0.002000       0.9998    1.8986    0.5327
 -151.43   76.70   68.33     0.002000       1.2075    2.2037    0.3744
 -155.57   91.55   98.38     0.002000       1.3367    2.1867    0.3401
 -154.21   97.75   92.19     0.002000       0.8195    2.5383    0.4803
 -155.05   95.60   91.54     0.002000       0.7870    2.5713    0.4931
 -147.91   85.81   79.48     0.002000       1.0827    2.0288    0.4591
 -155.92   96.96   69.82     0.002000       1.0491    3.1091    0.3033
 -153.49   58.81   87.28     0.002000       0.9488    2.9624    0.3533
 -153.28  103.13  101.79     0.002000       1.0715    3.2647    0.2820
 -154.25   90.06   86.69     0.002000       1.3104    2.1542    0.3529
 -152.78   90.54   87.82     0.002000       1.2468    2.1961    0.3645
 -151.86  104.86  107.63     0.002000       1.0902    2.0668    0.4432
 -155.75   85.21  107.22     0.002000       1.4541    2.3705    0.2869
 -155.36   95.38   93.72     0.002000       0.9142    2.5384    0.4295
 -152.44   64.65   76.16     0.002000       0.9853    2.5225    0.3997
 -148.73   98.22   98.86     0.002000       0.9430    2.1631    0.4937
 -153.95  108.11   98.25     0.002000       0.8849    2.2606    0.4987
 -155.06   91.62   69.06     0.002000       1.0650    3.0976    0.2997
 -155.00   83.55   94.39     0.002000       1.0004    3.7428    0.2623
 -146.54   89.14   87.02     0.002000       1.0487    1.2029    0.8027
 -156.84   86.82   94.18     0.002000       1.4228    2.2211    0.3133
 -154.01   91.19   99.24     0.002000       1.2433    2.2422    0.3575
 -155.44   86.27  104.28     0.002000       1.0055    3.4214    0.2866
 -153.89   97.14  103.90     0.002000       1.0622    3.3314    0.2786
 -149.76   90.64   90.61     0.002000       1.0002    2.3836    0.4216
 -155.48   56.90   96.10     0.002000       0.9536    2.9351    0.3556
 -153.81   89.08   91.13     0.002000       1.3409    2.1107    0.3523
 -154.14   88.81   80.63     0.002000       1.2877    2.2697    0.3403
 -151.36   76.75   69.51     0.002000       1.1776    2.0978    0.4039
 -153.81   83.89   87.98     0.002000       0.7889    2.5610    0.4947
 -158.51   84.48   91.62     0.002000       1.3663    2.1144    0.3433
 -155.79   87.84   63.63     0.002000       1.3413    2.4652    0.2989
 -158.38   95.18   93.37     0.002000       1.1193    2.1861    0.4068
 -153.58   68.17   79.25     0.002000       0.9431    2.2938    0.4603
 -153.98  122.82   85.26     0.002000       0.7317    2.6426    0.5182
 -156.36   90.67   81.15     0.002000       1.2834    2.3146    0.3339
 -155.22   87.90  107.87     0.002000       1.4718    2.3227    0.2895
 -153.72   91.99   93.01     0.002000       1.3736    2.1612    0.3353
 -155.38   91.30   97.21     0.002000       1.0034    1.8089    0.5516
 -151.05   88.11   88.18     0.002000       1.1584    1.7593    0.4918
 -153.83   90.11   96.36     0.002000       1.2714    2.1663    0.3622
 -152.85  103.33  104.36     0.002000       1.0222    1.9768    0.4947
 -154.68   89.89  103.30     0.002000       1.4216    2.3211    0.3004
 -157.03   79.67  114.72     0.002000       1.3024    2.4842    0.3064
 -149.30   88.43   84.21     0.002000       1.0026    1.1867    0.8499
 -153.96   90.54   85.60     0.002000       1.2332    2.4293    0.3319
 -151.74   83.54   84.02     0.002000       0.9050    2.4138    0.4588
 -154.97   90.89   75.59     0.002000       1.0053    3.4340    0.2856
 -154.78   97.31   94.50     0.002000       1.0043    3.6725    0.2663
 -154.57  113.41   92.65     0.002000       1.0110    3.1989    0.3054
 -156.73  127.80   84.86     0.002000       0.8551    2.7935    0.4171
 -156.68  107.22   78.88     0.002000       1.0020    3.3010    0.2985
 -152.33  102.69  110.00     0.002000       1.2076    2.1483    0.3838
 -152.03   95.27   98.01     0.002000       1.1070    1.7127    0.5292
 -141.53   93.57  104.96     0.002000       0.9941    1.6163    0.6307
 -153.83   91.99   98.78     0.002000       1.2614    2.2229    0.3555
 -156.53   84.91   83.17     0.002000       0.9363    1.8233    0.5866
 -155.35   94.39   66.92     0.002000       1.1304    2.9363    0.2982
 -150.02  100.15   97.21     0.002000       0.8349    2.3444    0.5132
 -155.12   74.04   91.41     0.002000       1.0023    3.4779    0.2827
 -159.53   67.69  115.63     0.002000       1.0977    2.4356    0.3731
 -163.96  121.34   66.15     0.002000       0.8857    2.5009    0.4509
 -153.09  105.71  104.01     0.002000       1.1008    2.9802    0.3013
 -155.68   83.12  106.83     0.002000       1.0228    3.2710    0.2954
 -152.32   91.54   80.26     0.002000       1.0790    1.6121    0.5775
 -155.00   92.97   94.45     0.002000       1.0005    3.7687    0.2601
 -144.99   90.93   90.50     0.002000       1.0589    1.2200    0.7841
 -151.58   97.92   98.06     0.002000       1.1653    1.7613    0.4881
 -153.97   81.41   76.25     0.002000       1.0609    3.2825    0.2831
 -150.68   83.74   83.63     0.002000       1.1714    1.7775    0.4815
 -151.87   96.90  104.45     0.002000       1.1049    1.8339    0.4944
 -155.73  110.19   85.54     0.002000       1.0022    3.3808    0.2911
 -150.72   92.61   88.85     0.002000       1.1536    1.6907    0.5144
 -151.43   93.91  101.75     0.002000       1.1793    1.8216    0.4660
 -154.75   87.67  111.94     0.002000       1.4249    2.4645    0.2818
 -153.57   89.41   84.28     0.002000       1.2732    2.1971    0.3566
 -152.69   90.60   97.00     0.002000       1.3019    2.3095    0.3314
 -154.51   90.80   99.93     0.002000       1.2815    2.3368    0.3319
 -153.77   87.81   82.78     0.002000       1.2770    2.2180    0.3518
 -153.77  115.28   95.50     0.002000       1.0175    3.0559    0.3183
 -154.56   90.32   89.60     0.002000       1.0896    1.7280    0.5317
 -159.89   89.18   87.17     0.002000       1.1312    2.1666    0.4057
 -153.35   87.38   85.33     0.002000       1.2602    2.2037    0.3592
 -154.94   89.11   81.46     0.002000       1.0008    3.6505    0.2690
 -154.58   90.58   98.41     0.002000       1.3292    2.3537    0.3173
 -154.16   84.50   70.63     0.002000       1.1161    3.0168    0.2934
 -152.33   85.76   90.83     0.002000       1.1266    1.6447    0.5413
 -153.80   90.41   82.85     0.002000       1.2618    2.2222    0.3554
 -152.74   94.93   95.28     0.002000       0.9903    2.4936    0.4047
 -154.71   95.12   92.04     0.002000       0.9076    2.5175    0.4367
 -156.92   97.66   85.60     0.002000       0.9680    1.8504    0.5587
 -151.17   88.27   78.43     0.002000       1.0927    1.6859    0.5453
 -151.75   61.01   79.51     0.002000       0.9511    2.7198    0.3844
 -153.71   96.01  110.67     0.002000       1.1790    2.8935    0.2897
 -155.73   82.04  101.47     0.002000       1.0017    3.4808    0.2827
 -152.96   90.01   82.15     0.002000       1.3031    2.1884    0.3499
 -159.29   84.68  100.54     0.002000       1.3687    1.9955    0.3638
 -157.29   92.21   91.95     0.002000       0.8938    2.4907    0.4472
 -158.04  114.38   72.81     0.002000       1.0173    2.9045    0.3363
 -153.41   82.23   92.36     0.002000       0.7104    2.5521    0.5523
 -162.15   65.16  118.58     0.002000       0.9515    1.5450    0.6870
 -147.75   93.76   95.74     0.002000       0.9963    2.2240    0.4552
 -155.27   89.75   93.12     0.002000       1.2841    2.4183    0.3192
 -148.26   80.05   76.85     0.002000       0.7681    2.2404    0.5846
 -154.50   89.28   79.48     0.002000       1.3019    2.3379    0.3264
 -152.64   81.45   66.86     0.002000       1.2865    2.3432    0.3294
 -154.38   88.95  113.71     0.002000       1.2393    2.8270    0.2824
 -157.21   61.52  100.56     0.002000       0.9977    2.9269    0.3402
 -153.28   94.05   93.31     0.002000       1.1368    1.7469    0.5040
 -152.28  101.78  111.15     0.002000       1.2055    2.5307    0.3253
 -155.68   87.06   84.22     0.002000       1.2222    2.3724    0.3425
 -155.25   96.61   92.80     0.002000       0.7477    2.5504    0.5233
 -143.02   92.07   96.55     0.002000       1.0452    1.7871    0.5421
 -154.86   88.46  114.33     0.002000       1.2649    2.7205    0.2876
 -154.47   88.85  113.70     0.002000       1.3844    2.5366    0.2818
 -154.26   67.34   88.98     0.002000       1.0060    3.2647    0.3010
 -154.56   87.73   65.22     0.002000       1.3652    2.3593    0.3077
 -154.82   90.27  109.58     0.002000       1.0735    3.1292    0.2942
 -155.24   76.30   93.92     0.002000       1.0012    3.5454    0.2775
 -153.20   92.54   85.27     0.002000       1.0742    1.5521    0.6026
 -155.77   91.07   96.19     0.002000       1.2467    2.2673    0.3517
 -154.70   91.96   99.13     0.002000       1.2864    2.2353    0.3461
 -152.38   75.38   72.90     0.002000       1.1300    2.8600    0.3063
 -153.12   64.79   88.11     0.002000       0.7228    2.7456    0.5032
