TEXTURE AT STRAIN =    1.0000
   1.071   2.298   0.406  <-- length of average ellipsoid axes for phase
 -154.11   90.07   90.02  <-- Euler angles of average ellipsoid axes for phase
B       500
   71.00  130.20    7.09   0.0020000
  165.65   25.51   80.10   0.0020000
  120.61   22.87   66.35   0.0020000
  124.61   87.60   53.73   0.0020000
  125.06   81.02    5.84   0.0020000
  -13.24    4.75  -96.88   0.0020000
  -53.20   80.80  -46.00   0.0020000
  165.33  164.88  -23.15   0.0020000
  -56.25   70.60  129.57   0.0020000
 -116.33  151.70  176.01   0.0020000
  -66.60  165.49  -76.01   0.0020000
   17.14  174.72   67.29   0.0020000
  -38.34   68.13   39.56   0.0020000
  -49.04  118.32  170.34   0.0020000
   -0.69  120.98  -29.24   0.0020000
 -113.86   79.74  179.66   0.0020000
   78.67    8.28 -129.02   0.0020000
   55.79   53.02    9.93   0.0020000
   61.49   65.28 -164.61   0.0020000
 -132.79   20.15 -158.39   0.0020000
  147.19  126.89  -35.16   0.0020000
  -35.39  154.48 -153.72   0.0020000
 -117.00    8.90   66.86   0.0020000
  127.39   24.01 -122.67   0.0020000
  124.99   88.28   61.09   0.0020000
   95.74  114.96  -54.06   0.0020000
  -59.78   87.19  -71.69   0.0020000
  -55.87   63.70 -173.75   0.0020000
 -110.35   95.24 -100.98   0.0020000
  -57.95  117.98  -65.65   0.0020000
  122.45   85.45   64.59   0.0020000
  -52.70   42.33  -15.58   0.0020000
  124.20  118.27  111.65   0.0020000
 -110.30   83.26 -103.30   0.0020000
  -59.22  131.53 -130.01   0.0020000
  -47.57   55.88 -117.21   0.0020000
  -45.57  149.57 -161.81   0.0020000
 -158.73   44.06 -142.16   0.0020000
 -174.84  110.26  104.57   0.0020000
  -50.66   70.81   74.25   0.0020000
 -161.09  144.55   17.23   0.0020000
  117.41   69.98   90.10   0.0020000
  125.20   76.82 -173.04   0.0020000
  -64.19   47.97  135.06   0.0020000
  124.04   66.36 -110.76   0.0020000
  129.33   94.20 -133.00   0.0020000
 -131.15   35.01   17.79   0.0020000
  125.01   82.98  125.29   0.0020000
  -57.91   54.32 -170.89   0.0020000
  -77.60   31.53 -152.78   0.0020000
 -109.33   16.45  -61.37   0.0020000
  -57.79   94.62  166.85   0.0020000
  -43.73  121.71 -136.70   0.0020000
  131.67  163.81  -56.46   0.0020000
   40.53   44.71  -99.92   0.0020000
 -116.12  110.33  -13.68   0.0020000
   63.85  102.06  -78.48   0.0020000
  -57.79   43.32   59.56   0.0020000
 -104.11    3.45   -5.81   0.0020000
  -34.65   97.87  104.09   0.0020000
  122.31    7.16    7.60   0.0020000
  -55.21  106.51  165.34   0.0020000
 -122.09   64.03 -116.39   0.0020000
  132.10  171.33  -61.96   0.0020000
  -56.80   82.95 -117.21   0.0020000
  124.17   71.16 -116.48   0.0020000
  -51.18  153.72 -173.05   0.0020000
  -38.62  131.56 -155.43   0.0020000
  176.48   26.41  127.84   0.0020000
  162.35   61.16 -150.11   0.0020000
  -51.10   78.44   21.06   0.0020000
  -54.27  101.09  174.49   0.0020000
   67.60   11.64 -178.04   0.0020000
 -118.59   92.90  -50.08   0.0020000
    0.66  166.86   52.72   0.0020000
  -96.78  172.58   13.18   0.0020000
  -61.14  148.40  171.27   0.0020000
  121.31   44.32   67.54   0.0020000
  124.13   72.33   69.49   0.0020000
  -53.89  151.18    5.04   0.0020000
  124.57   68.89 -176.66   0.0020000
   24.33   12.33 -134.90   0.0020000
  -94.16  162.24   76.73   0.0020000
  -56.96  102.22  173.40   0.0020000
    2.13    2.58   67.97   0.0020000
  124.95   76.59 -173.00   0.0020000
  125.89   85.05  127.71   0.0020000
   53.33   85.60  101.79   0.0020000
  -52.00  119.00   56.94   0.0020000
  -52.01   76.10  -58.19   0.0020000
  121.23   25.22    7.86   0.0020000
   64.67   16.71   64.28   0.0020000
   67.62   75.80  173.36   0.0020000
  -29.67  145.06 -144.11   0.0020000
  -55.48   95.42   -4.25   0.0020000
  133.50  155.19 -168.80   0.0020000
   75.92  150.88  126.66   0.0020000
   63.96   82.56  -51.83   0.0020000
   65.49  111.33  -63.35   0.0020000
  126.72   83.45   63.21   0.0020000
   66.72   81.10  -37.89   0.0020000
  126.08   81.79   71.01   0.0020000
  123.13   64.50    9.64   0.0020000
  121.00  135.98  111.26   0.0020000
  -47.05   95.97   87.96   0.0020000
  123.07   90.61  -58.60   0.0020000
    8.19   15.96   60.39   0.0020000
  -57.36   59.42  129.28   0.0020000
  -54.31  117.56 -126.48   0.0020000
  -54.49   86.88 -118.17   0.0020000
  -57.36   30.13  -59.62   0.0020000
   29.35  132.14   34.34   0.0020000
 -116.34  126.64  118.89   0.0020000
  142.22   58.82 -142.72   0.0020000
  113.48  118.82  -92.84   0.0020000
  120.38  124.99  -11.56   0.0020000
   67.47   72.30   23.50   0.0020000
  -91.13   28.98  -20.63   0.0020000
  133.22  117.07    9.40   0.0020000
  -15.69  151.84  -17.99   0.0020000
  -10.47   12.33  -40.06   0.0020000
  -53.29   98.53   93.13   0.0020000
   14.91   40.15 -134.74   0.0020000
 -118.51   56.64  139.71   0.0020000
  140.59  158.36   14.92   0.0020000
   26.13  149.98  -40.28   0.0020000
   69.75   86.15  -85.59   0.0020000
  124.69  134.87  -71.27   0.0020000
  128.63   54.24 -118.85   0.0020000
  -62.48  164.78 -131.39   0.0020000
  -53.31   79.87    2.55   0.0020000
 -175.72  101.58  134.77   0.0020000
  -44.32   95.23 -100.91   0.0020000
 -121.37   34.34  -52.08   0.0020000
  129.74  131.08  179.39   0.0020000
 -116.92  122.95  -53.65   0.0020000
 -119.21   50.58  120.16   0.0020000
  125.13   82.54  136.28   0.0020000
 -100.69   85.01   18.87   0.0020000
  -41.59  130.68  143.41   0.0020000
  -94.94  160.04   76.30   0.0020000
   95.84  147.80   86.93   0.0020000
  124.24   68.25  109.09   0.0020000
   24.97   17.48  104.19   0.0020000
  127.81  107.40   71.94   0.0020000
  124.91  101.73   52.03   0.0020000
  123.90   67.90  128.62   0.0020000
   68.54   85.67  110.45   0.0020000
  -50.76   92.16  -90.35   0.0020000
   68.31   83.59  134.10   0.0020000
  128.67  129.45   47.36   0.0020000
  -57.54  104.51  -66.49   0.0020000
   58.88   73.78   23.30   0.0020000
 -171.80   64.53   80.37   0.0020000
 -113.54   91.69 -111.67   0.0020000
   98.25  157.67  149.10   0.0020000
 -164.77  147.39 -109.57   0.0020000
  -29.46  159.80  -33.28   0.0020000
  125.00   92.37   63.57   0.0020000
  124.93   88.75 -135.04   0.0020000
  -46.70  125.97   65.61   0.0020000
  118.04   50.98 -166.98   0.0020000
 -117.23  100.68   32.77   0.0020000
  155.86  139.78 -155.12   0.0020000
   63.95   78.83   72.51   0.0020000
  -24.99  124.98   33.31   0.0020000
  -67.24   23.20  136.73   0.0020000
   58.51    7.70 -168.81   0.0020000
   74.00   87.81  174.44   0.0020000
  118.77   62.30  133.21   0.0020000
  -54.93   98.05 -124.74   0.0020000
  -79.56  165.24  -29.18   0.0020000
  133.94   18.78 -128.36   0.0020000
 -111.16   90.74  -29.45   0.0020000
 -145.78  146.06  -31.72   0.0020000
  124.22   94.02  -54.60   0.0020000
  124.85  101.93  116.26   0.0020000
  129.30  124.99  178.35   0.0020000
 -137.91  115.98  -81.01   0.0020000
  114.75   62.68 -103.88   0.0020000
  -59.32   49.95  124.74   0.0020000
  116.85   89.99 -174.95   0.0020000
  153.78  131.27   95.96   0.0020000
 -139.96   51.27  -97.97   0.0020000
  121.39  108.09  108.86   0.0020000
  120.52   52.65   10.83   0.0020000
  124.19   69.04 -164.67   0.0020000
  -45.59  105.42   71.19   0.0020000
  127.22  102.36 -144.75   0.0020000
  125.17   85.68  -57.81   0.0020000
  135.91   58.32  -70.88   0.0020000
  123.23   61.47  -51.33   0.0020000
  -76.61  143.23  -26.40   0.0020000
 -103.34   92.47   82.73   0.0020000
  -56.92   87.49  136.61   0.0020000
   62.00  100.52  -15.29   0.0020000
  111.56  165.40  162.26   0.0020000
   -9.28  171.31   41.19   0.0020000
   15.71  156.65 -172.15   0.0020000
 -152.38   40.31   35.01   0.0020000
   56.18  159.81  167.11   0.0020000
  -51.20  129.05   26.75   0.0020000
  -50.61  106.56 -119.88   0.0020000
   71.71   83.28  -98.82   0.0020000
  -54.83   98.26   -5.30   0.0020000
  -32.01   78.31  -69.87   0.0020000
  109.73  152.54  -20.11   0.0020000
 -118.04  105.60  -16.53   0.0020000
   28.63   15.91  100.85   0.0020000
 -106.20  144.67  -53.61   0.0020000
 -118.43   43.03  -81.49   0.0020000
  148.04   25.15   32.46   0.0020000
  -86.14  161.51 -155.35   0.0020000
  -50.23   87.07  175.23   0.0020000
  -32.09  174.60  138.31   0.0020000
   73.03   91.32  -54.41   0.0020000
  -51.64  111.76 -125.43   0.0020000
  -42.33   19.26 -131.28   0.0020000
  -52.41   72.97 -172.99   0.0020000
  128.78   68.36  174.76   0.0020000
   35.97  159.47  -92.45   0.0020000
  127.97   82.92   10.84   0.0020000
  126.43   73.49 -127.86   0.0020000
  -60.11  133.31  -70.91   0.0020000
  -54.98   87.21 -178.26   0.0020000
  124.86   78.88 -168.22   0.0020000
  -55.51  106.50  172.04   0.0020000
  -54.67   79.82    6.75   0.0020000
 -172.09   25.93 -121.59   0.0020000
  129.96   86.74  -93.14   0.0020000
  -64.77   77.92 -104.70   0.0020000
  -54.37   82.27    5.77   0.0020000
  120.74  171.39   50.99   0.0020000
  123.80   69.41   69.21   0.0020000
  123.92  152.99  119.55   0.0020000
  129.25   98.78  111.49   0.0020000
  125.30   95.33 -120.44   0.0020000
 -113.56   91.24  157.24   0.0020000
   60.62   83.33  -99.93   0.0020000
  144.93   79.66 -166.30   0.0020000
  -51.29   81.46   -3.44   0.0020000
   -8.06   36.94  -55.52   0.0020000
  -56.65  147.54    2.86   0.0020000
 -100.38  166.21 -109.93   0.0020000
  -55.05   81.38 -106.29   0.0020000
  -66.29  114.81   46.31   0.0020000
 -121.15  101.46 -149.68   0.0020000
   58.92  150.44  171.76   0.0020000
 -133.00  121.20   39.83   0.0020000
 -104.67  111.34 -179.93   0.0020000
 -110.22  101.46   90.38   0.0020000
  122.38   73.57 -107.84   0.0020000
 -117.46   70.69 -167.15   0.0020000
  -55.80   72.30 -171.27   0.0020000
  -55.69   50.72  148.57   0.0020000
  118.17   34.02   71.10   0.0020000
 -136.26  149.92  156.07   0.0020000
  -51.24  108.85   40.63   0.0020000
  -50.91  139.28  -84.80   0.0020000
  122.65  100.59 -129.19   0.0020000
 -176.74   61.35 -153.09   0.0020000
 -111.27   83.29  -74.35   0.0020000
  -62.17  144.73   47.89   0.0020000
  120.54   44.23  129.70   0.0020000
 -158.79  157.46  132.80   0.0020000
  -58.11   49.25  -50.86   0.0020000
  -63.61  157.28  -12.05   0.0020000
 -140.18  165.87  -29.73   0.0020000
  131.38   88.03  -57.81   0.0020000
  -57.62  100.01 -126.99   0.0020000
  -55.93  100.68  113.97   0.0020000
  140.19  150.91 -156.95   0.0020000
 -163.61  126.83  -93.63   0.0020000
 -113.25  103.11  122.18   0.0020000
 -129.25  130.09  106.30   0.0020000
  -58.37  125.78  -83.10   0.0020000
 -163.08  139.46  -44.27   0.0020000
  125.61  109.50    2.31   0.0020000
  100.91  157.90  151.67   0.0020000
  -18.67  129.39   35.64   0.0020000
 -160.06  139.34  -99.87   0.0020000
  124.78   75.47  -51.97   0.0020000
 -154.87  148.70 -161.54   0.0020000
   67.95   73.81   86.59   0.0020000
 -171.20  166.66  179.29   0.0020000
 -125.25  123.61  -67.11   0.0020000
   -1.66  129.61   78.28   0.0020000
  125.18   84.68   63.15   0.0020000
  -55.93  107.46 -136.57   0.0020000
  -53.69   13.69 -117.15   0.0020000
 -103.83  147.44   68.25   0.0020000
  -54.68   41.06  170.57   0.0020000
   64.91   79.75 -154.74   0.0020000
  -92.08   41.05   38.17   0.0020000
  125.25  168.10 -113.96   0.0020000
  -57.04   68.62 -175.97   0.0020000
  124.59  103.59 -133.45   0.0020000
 -111.63   69.81  154.72   0.0020000
  158.61  160.79   92.39   0.0020000
  159.30  143.85  160.23   0.0020000
  -49.44   64.70   -4.67   0.0020000
  -18.88   27.57  141.22   0.0020000
  -61.34   20.24   70.39   0.0020000
  129.47  111.97    2.77   0.0020000
  -82.24  175.76   27.68   0.0020000
  -54.76   90.87 -120.26   0.0020000
  -55.30   86.79 -177.39   0.0020000
 -126.15   61.21 -178.39   0.0020000
  124.77   98.54 -178.59   0.0020000
 -110.63   94.59   87.15   0.0020000
  -40.56  130.85  110.92   0.0020000
  -58.01  102.38  113.66   0.0020000
  126.65   47.87  129.84   0.0020000
  133.89  138.48  145.28   0.0020000
 -166.69   30.69 -128.58   0.0020000
   60.58  112.39 -171.24   0.0020000
  -54.28   86.17   62.65   0.0020000
 -132.16   62.50   80.52   0.0020000
  -55.56   84.76 -166.32   0.0020000
  126.49   89.59   12.14   0.0020000
  -45.90  156.40   10.27   0.0020000
  111.52   90.64 -103.46   0.0020000
  -55.64   86.52  175.65   0.0020000
   63.53  145.47  177.34   0.0020000
  -53.71   15.71 -176.53   0.0020000
  -55.09   88.62 -112.89   0.0020000
  -58.17  131.98  110.82   0.0020000
  -53.79  108.29   18.04   0.0020000
   96.03   68.10  -13.12   0.0020000
  125.54   81.15   17.95   0.0020000
  -56.44   95.17   56.02   0.0020000
  -44.10   99.66  -86.13   0.0020000
   74.92  168.36   65.01   0.0020000
 -161.50   29.69   47.17   0.0020000
  -50.71  117.30   71.17   0.0020000
 -112.88   76.51   89.08   0.0020000
  -56.14  151.46   68.31   0.0020000
   64.15  111.19 -170.52   0.0020000
  -54.65   96.69 -123.38   0.0020000
  124.47  104.11  -57.79   0.0020000
   86.21   19.11   42.75   0.0020000
   65.72  104.54 -143.43   0.0020000
   45.18   36.86   81.10   0.0020000
  -49.01  159.46  -52.90   0.0020000
   86.40   99.33   30.67   0.0020000
  122.08  131.83  176.42   0.0020000
   64.34   85.11   12.18   0.0020000
  137.99  158.67  -44.86   0.0020000
    0.20   49.74 -131.71   0.0020000
  135.54  124.95   29.30   0.0020000
  120.57  129.52 -130.48   0.0020000
 -115.02   87.15   47.02   0.0020000
  -56.29  115.00  111.60   0.0020000
   69.92  101.12  -98.76   0.0020000
   92.60   14.22 -143.07   0.0020000
 -114.73   90.10  175.62   0.0020000
  -53.31  102.16   -7.70   0.0020000
 -141.05   45.84   84.33   0.0020000
  131.49  102.64   40.72   0.0020000
 -152.16   20.38  -79.46   0.0020000
  124.67   88.43  112.23   0.0020000
  -57.88   98.85   60.14   0.0020000
  124.71  107.80  172.57   0.0020000
  128.27  113.11  -61.23   0.0020000
  123.85   70.33 -170.50   0.0020000
  122.33  154.80   -6.38   0.0020000
  -50.81   90.30 -118.89   0.0020000
  121.08   85.91  127.36   0.0020000
  -71.04  169.34  -20.52   0.0020000
  -55.59   96.11  176.70   0.0020000
  108.75  154.21  -21.06   0.0020000
  110.32   42.93  140.17   0.0020000
 -170.49   46.70  -17.87   0.0020000
 -111.80   14.72  -58.78   0.0020000
  -56.35  126.00 -112.26   0.0020000
   67.01   77.77  -87.61   0.0020000
 -144.78  164.10 -154.20   0.0020000
  -55.71   67.23  -55.73   0.0020000
   27.92   22.17  -19.38   0.0020000
  -56.02   71.30   69.43   0.0020000
 -133.40   44.65  -44.05   0.0020000
  -53.18  134.51   94.60   0.0020000
  142.03  153.86  139.69   0.0020000
  125.27   31.16  165.20   0.0020000
 -124.93  130.88  -12.22   0.0020000
  -44.43   95.17  179.44   0.0020000
  -53.69   96.57  -53.28   0.0020000
   46.48   39.94 -101.07   0.0020000
  120.38  140.46  111.98   0.0020000
  119.94   92.87  116.31   0.0020000
  110.95  165.64  101.96   0.0020000
  124.98   90.88  -61.08   0.0020000
 -120.15   92.45  -78.96   0.0020000
  119.97   50.42  131.37   0.0020000
  -46.04   73.48   70.29   0.0020000
  135.32  146.71 -158.04   0.0020000
 -137.25  150.43  -85.16   0.0020000
  123.03   56.13 -105.53   0.0020000
   47.00   35.61   77.39   0.0020000
   42.57   53.99  -38.73   0.0020000
   31.55   17.03  -22.57   0.0020000
 -170.05   27.80  116.00   0.0020000
  126.98   93.40   14.60   0.0020000
  170.52   22.51   14.36   0.0020000
   10.58   54.16 -140.49   0.0020000
  131.35   92.91  -48.21   0.0020000
  124.95  121.69 -102.91   0.0020000
 -174.64  132.25 -171.02   0.0020000
 -156.60   53.49  154.85   0.0020000
 -113.98   78.66   56.07   0.0020000
  128.73  100.57   59.34   0.0020000
   98.47  160.68  -31.46   0.0020000
  -55.26   79.85 -112.99   0.0020000
  -53.68   87.62 -107.37   0.0020000
   96.09  158.73  -93.19   0.0020000
  -56.86   64.47 -119.53   0.0020000
  -64.37  107.62   41.70   0.0020000
  -55.73   83.51 -164.25   0.0020000
  121.85   46.92 -115.36   0.0020000
  -17.64  176.24 -147.38   0.0020000
   32.80  144.88  146.73   0.0020000
  105.58  100.72 -172.45   0.0020000
  -56.53  121.56 -177.20   0.0020000
  117.79  139.41 -132.72   0.0020000
  -54.93   73.91   65.86   0.0020000
 -114.39   99.16  160.15   0.0020000
  140.98  136.70  -14.35   0.0020000
  127.58  114.47  -64.80   0.0020000
 -117.48  164.21  113.13   0.0020000
  -53.71   67.59   10.57   0.0020000
  123.39  113.32   59.27   0.0020000
   57.38   67.36 -159.27   0.0020000
  120.07  141.28  171.67   0.0020000
 -134.06   28.38  -38.75   0.0020000
  124.62  104.90  -17.65   0.0020000
   -7.51    6.90 -102.67   0.0020000
   14.58   46.83  162.28   0.0020000
  154.45   32.21   20.90   0.0020000
 -122.47   43.69 -172.79   0.0020000
  131.23   80.04    9.48   0.0020000
   71.27  101.78   96.85   0.0020000
    3.66  103.36  -27.44   0.0020000
  -54.94   83.15   52.13   0.0020000
  -54.42  106.62  114.52   0.0020000
   11.47  173.25 -178.26   0.0020000
 -130.32  152.96  101.42   0.0020000
  143.25   15.59 -135.93   0.0020000
   67.15   92.65  -73.04   0.0020000
  -68.63  103.02  164.70   0.0020000
  115.18   38.34   75.85   0.0020000
  135.55   14.28   -7.19   0.0020000
   64.74   98.84   39.77   0.0020000
  114.83   33.07   15.62   0.0020000
  124.06  100.19 -171.64   0.0020000
  129.40   22.94  -66.76   0.0020000
  122.79  109.54 -130.29   0.0020000
 -130.11   46.70  -45.03   0.0020000
 -131.34   55.13  134.56   0.0020000
  125.43   83.63   64.66   0.0020000
  -63.48   66.86 -165.21   0.0020000
  -47.26   94.46  125.50   0.0020000
  126.99   79.98   61.23   0.0020000
  -54.13   99.87  -10.47   0.0020000
  -59.10  136.52   -5.82   0.0020000
    1.11   41.54  117.76   0.0020000
  -55.00  113.74   82.93   0.0020000
  164.91    8.50  -95.47   0.0020000
  -55.12   85.43  128.34   0.0020000
  -56.79   58.34    8.06   0.0020000
  -32.27  151.77  146.79   0.0020000
 -164.62  145.64  -49.12   0.0020000
  126.07   13.57  123.42   0.0020000
  -55.99  108.60 -127.69   0.0020000
   -1.35  112.55 -138.58   0.0020000
  154.64  120.68  -71.29   0.0020000
  -46.23  163.06   66.78   0.0020000
 -131.95  150.42  -19.55   0.0020000
  -71.65   64.70   20.39   0.0020000
 -156.99  157.18  -45.73   0.0020000
  129.04   37.17  -91.32   0.0020000
  -55.10   68.29  136.32   0.0020000
  -43.99   80.87   -4.48   0.0020000
  128.56  102.11 -117.83   0.0020000
  -28.41   31.24   25.08   0.0020000
  110.67   12.09 -101.48   0.0020000
  112.89   88.30 -173.14   0.0020000
 -140.86   30.97  148.04   0.0020000
 -114.45   79.79  173.89   0.0020000
   95.84  114.44  106.06   0.0020000
  123.69  165.97 -125.72   0.0020000
 -174.98  114.67   14.01   0.0020000
  137.19   66.77   91.76   0.0020000
  -13.59   44.13  108.44   0.0020000
  123.03  169.22  -66.48   0.0020000
  127.25   88.80  -50.04   0.0020000
  -58.74  113.76  -11.16   0.0020000
   97.24   66.62  -22.27   0.0020000
  -47.19  117.27   61.36   0.0020000
  -55.19  111.87   51.56   0.0020000
 -122.60   93.03  -74.84   0.0020000
TEXTURE AT STRAIN =    2.0000
   1.153   3.551   0.244  <-- length of average ellipsoid axes for phase
 -156.65   90.06   90.02  <-- Euler angles of average ellipsoid axes for phase
B       500
   49.71  143.74  -16.53   0.0020000
  137.58   18.61   60.14   0.0020000
  107.99   16.56   30.49   0.0020000
  126.79   89.13   58.59   0.0020000
  126.93   82.47    4.49   0.0020000
  -31.57    2.66 -128.97   0.0020000
  -52.67   82.10  -51.99   0.0020000
  146.08  170.62    6.86   0.0020000
  -54.02   74.49  129.02   0.0020000
 -126.36  161.38 -145.15   0.0020000
  -79.05  169.74  -38.01   0.0020000
    7.80  176.52  108.37   0.0020000
  -53.86   71.36   57.09   0.0020000
  -53.32  110.85  171.30   0.0020000
  -38.40  133.50  -37.10   0.0020000
