TEXTURE AT STRAIN =    1.0000
   1.071   2.295   0.407  <-- length of average ellipsoid axes for phase
 -154.20   90.08   90.01  <-- Euler angles of average ellipsoid axes for phase
B       500
   71.09  130.25    7.26   0.0020000
  165.59   25.50   79.89   0.0020000
  120.59   22.84   66.15   0.0020000
  124.51   87.60   53.73   0.0020000
  124.97   81.03    5.84   0.0020000
  -13.34    4.75  -96.99   0.0020000
  -53.19   80.77  -46.01   0.0020000
  165.25  164.87  -22.99   0.0020000
  -56.34   70.60  129.62   0.0020000
 -116.28  151.67  176.16   0.0020000
  -66.71  165.48  -75.94   0.0020000
   17.05  174.72   67.41   0.0020000
  -38.36   68.15   39.73   0.0020000
  -48.93  118.35  170.75   0.0020000
   -0.44  121.15  -29.47   0.0020000
 -113.94   79.77  179.62   0.0020000
   78.56    8.29 -129.10   0.0020000
   55.76   53.10    9.93   0.0020000
   61.41   65.25 -164.63   0.0020000
 -132.87   20.18 -158.45   0.0020000
  147.28  126.82  -35.33   0.0020000
  -35.17  154.51 -152.74   0.0020000
 -117.12    8.92   66.81   0.0020000
  127.49   23.97 -123.22   0.0020000
  124.91   88.28   61.08   0.0020000
   95.67  114.88  -54.82   0.0020000
  -59.89   87.17  -71.66   0.0020000
  -55.95   63.64 -173.72   0.0020000
 -110.44   95.24 -100.97   0.0020000
  -58.01  118.00  -65.71   0.0020000
  122.35   85.45   64.57   0.0020000
  -52.57   42.22  -16.74   0.0020000
  124.15  118.39  111.53   0.0020000
 -110.37   83.20 -103.29   0.0020000
  -59.27  131.53 -130.09   0.0020000
  -47.49   55.87 -117.22   0.0020000
  -45.35  149.64 -160.64   0.0020000
 -158.57   44.04 -142.37   0.0020000
 -174.43  110.28  104.06   0.0020000
  -50.57   70.79   73.96   0.0020000
 -160.98  144.55   17.38   0.0020000
  117.23   69.86   91.32   0.0020000
  125.14   76.80 -173.00   0.0020000
  -64.27   48.00  135.15   0.0020000
  123.98   66.31 -110.68   0.0020000
  129.42   94.20 -132.96   0.0020000
 -131.18   35.06   17.75   0.0020000
  124.93   82.99  125.28   0.0020000
  -57.98   54.29 -170.78   0.0020000
  -77.68   31.56 -152.76   0.0020000
 -109.42   16.47  -61.42   0.0020000
  -57.90   94.59  166.88   0.0020000
  -43.59  121.73 -135.82   0.0020000
  131.67  163.82  -56.22   0.0020000
   40.39   44.74  -99.90   0.0020000
 -116.20  110.39  -13.60   0.0020000
   63.76  102.01  -78.44   0.0020000
  -57.85   43.22   59.45   0.0020000
 -104.25    3.45   -5.87   0.0020000
  -34.76   97.89  104.21   0.0020000
  122.17    7.17    7.52   0.0020000
  -55.30  106.62  165.07   0.0020000
 -122.19   64.09 -116.40   0.0020000
  131.89  171.34  -61.97   0.0020000
  -56.90   82.98 -117.18   0.0020000
  124.10   71.11 -116.46   0.0020000
  -51.03  153.78 -172.26   0.0020000
  -38.48  131.59 -155.33   0.0020000
  176.46   26.41  127.59   0.0020000
  162.37   61.06 -149.92   0.0020000
  -51.01   78.44   20.93   0.0020000
  -54.31  101.15  174.43   0.0020000
   67.50   11.66 -178.10   0.0020000
 -118.67   92.91  -50.09   0.0020000
    0.55  166.84   52.90   0.0020000
  -96.90  172.57   13.25   0.0020000
  -61.25  148.44  171.28   0.0020000
  121.23   44.27   67.53   0.0020000
  124.05   72.34   69.52   0.0020000
  -53.79  151.24    5.75   0.0020000
  124.51   68.81 -176.70   0.0020000
   24.24   12.35 -134.99   0.0020000
  -94.23  162.22   76.81   0.0020000
  -57.03  102.18  173.41   0.0020000
    2.03    2.59   67.85   0.0020000
  124.87   76.58 -172.97   0.0020000
  125.85   85.01  127.75   0.0020000
   54.27   85.66  101.94   0.0020000
  -51.96  119.14   56.75   0.0020000
  -51.96   76.05  -58.11   0.0020000
  121.17   25.17    7.78   0.0020000
   64.56   16.74   64.24   0.0020000
   67.54   75.77  173.29   0.0020000
  -29.48  145.07 -143.26   0.0020000
  -55.56   95.42   -4.24   0.0020000
  133.66  155.24 -168.11   0.0020000
   75.87  150.86  126.58   0.0020000
   63.88   82.58  -51.91   0.0020000
   65.40  111.45  -63.26   0.0020000
  126.71   83.39   63.26   0.0020000
   66.65   81.10  -37.92   0.0020000
  126.05   81.73   71.03   0.0020000
  123.06   64.51    9.70   0.0020000
  120.90  136.06  111.19   0.0020000
  -46.97   95.95   87.90   0.0020000
  122.97   90.59  -58.62   0.0020000
    8.06   15.97   60.33   0.0020000
  -57.44   59.40  129.38   0.0020000
  -54.33  117.71 -126.65   0.0020000
  -54.57   86.89 -118.15   0.0020000
  -57.34   30.06  -59.96   0.0020000
   29.24  132.11   34.35   0.0020000
 -116.39  126.69  118.93   0.0020000
  142.27   58.88 -142.52   0.0020000
  113.29  118.61  -94.61   0.0020000
  120.30  124.99  -11.66   0.0020000
   67.38   72.22   23.53   0.0020000
  -91.10   29.04  -20.75   0.0020000
  133.33  117.10    9.24   0.0020000
  -15.64  151.83  -17.52   0.0020000
  -10.62   12.34  -40.12   0.0020000
  -53.26   98.54   93.14   0.0020000
   15.13   40.12 -134.95   0.0020000
 -118.63   56.39  140.51   0.0020000
  140.72  158.39   15.42   0.0020000
   26.17  149.95  -40.13   0.0020000
   69.66   86.16  -85.60   0.0020000
  124.70  135.02  -71.71   0.0020000
  128.69   54.11 -118.64   0.0020000
  -62.57  164.78 -131.29   0.0020000
  -53.32   79.81    2.63   0.0020000
 -175.05  102.01  134.71   0.0020000
  -44.25   95.21 -101.00   0.0020000
 -121.35   34.36  -52.17   0.0020000
  129.81  131.18  179.19   0.0020000
 -116.99  122.94  -53.62   0.0020000
 -119.30   50.61  120.19   0.0020000
  125.05   82.51  136.32   0.0020000
 -100.45   84.96   18.85   0.0020000
  -41.43  130.75  143.67   0.0020000
  -94.98  160.01   76.41   0.0020000
   95.85  147.74   86.99   0.0020000
  124.20   68.14  109.06   0.0020000
   24.88   17.50  104.13   0.0020000
  127.87  107.44   71.99   0.0020000
  124.81  101.72   51.99   0.0020000
  123.83   67.90  128.67   0.0020000
   68.45   85.65  110.40   0.0020000
  -50.67   92.16  -90.37   0.0020000
   68.24   83.54  134.08   0.0020000
  128.74  129.55   47.26   0.0020000
  -57.61  104.45  -66.49   0.0020000
   58.92   73.94   23.32   0.0020000
 -171.35   64.53   80.84   0.0020000
 -113.63   91.72 -111.65   0.0020000
   98.07  157.67  149.06   0.0020000
 -164.63  147.40 -109.36   0.0020000
  -29.33  159.81  -32.65   0.0020000
  124.90   92.36   63.54   0.0020000
  124.87   88.74 -135.04   0.0020000
  -46.61  126.05   65.38   0.0020000
  117.99   51.04 -166.92   0.0020000
 -117.28  100.64   32.80   0.0020000
  156.04  139.78 -155.44   0.0020000
   63.87   78.86   72.42   0.0020000
  -25.07  124.91   33.04   0.0020000
  -67.46   23.15  136.79   0.0020000
   58.41    7.72 -168.90   0.0020000
   74.03   87.80  174.45   0.0020000
  118.70   62.35  133.23   0.0020000
  -55.01   98.05 -124.74   0.0020000
  -79.67  165.23  -29.13   0.0020000
  134.04   18.76 -128.88   0.0020000
 -111.25   90.74  -29.44   0.0020000
 -145.79  146.00  -31.64   0.0020000
  124.12   94.01  -54.63   0.0020000
  124.76  101.95  116.21   0.0020000
  129.36  125.09  178.13   0.0020000
 -137.02  115.59  -80.68   0.0020000
  114.71   62.75 -103.89   0.0020000
  -59.44   49.81  124.79   0.0020000
  116.78   89.97 -174.98   0.0020000
  153.82  131.29   95.96   0.0020000
 -139.94   51.45  -98.08   0.0020000
  121.30  108.09  108.84   0.0020000
  120.48   52.68   10.89   0.0020000
  124.08   68.90 -164.08   0.0020000
  -45.53  105.39   71.13   0.0020000
  127.27  102.37 -144.55   0.0020000
  125.09   85.68  -57.81   0.0020000
  136.01   58.27  -70.67   0.0020000
  123.18   61.47  -51.25   0.0020000
  -76.57  143.14  -26.36   0.0020000
 -103.31   92.46   82.72   0.0020000
  -57.02   87.50  136.60   0.0020000
   61.92  100.46  -15.23   0.0020000
  111.42  165.40  162.29   0.0020000
   -9.43  171.30   41.27   0.0020000
   15.61  156.63 -172.07   0.0020000
 -152.33   40.38   34.85   0.0020000
   56.11  159.77  167.17   0.0020000
  -51.07  129.16   28.30   0.0020000
  -50.53  106.58 -119.92   0.0020000
   71.63   83.25  -98.84   0.0020000
  -54.91   98.26   -5.30   0.0020000
  -32.12   78.40  -69.91   0.0020000
  109.50  152.58  -20.21   0.0020000
 -118.13  105.58  -16.47   0.0020000
   28.53   15.93  100.79   0.0020000
 -106.01  144.67  -53.40   0.0020000
 -118.67   42.91  -78.26   0.0020000
  148.24   25.13   31.59   0.0020000
  -86.23  161.49 -155.29   0.0020000
  -50.15   87.06  175.28   0.0020000
  -32.19  174.59  138.45   0.0020000
   73.07   91.33  -54.44   0.0020000
  -51.57  111.82 -125.42   0.0020000
  -42.23   19.24 -131.72   0.0020000
  -52.37   72.92 -172.94   0.0020000
  128.87   68.29  174.85   0.0020000
   35.90  159.44  -92.38   0.0020000
  128.03   82.89   10.86   0.0020000
  126.46   73.39 -127.95   0.0020000
  -60.15  133.29  -70.99   0.0020000
  -55.06   87.22 -178.23   0.0020000
  124.78   78.88 -168.22   0.0020000
  -55.59  106.50  172.00   0.0020000
  -54.75   79.83    6.80   0.0020000
 -172.16   25.93 -121.71   0.0020000
  130.05   86.75  -93.16   0.0020000
  -64.83   77.92 -104.73   0.0020000
  -54.43   82.26    5.83   0.0020000
  120.60  171.38   51.04   0.0020000
  123.73   69.41   69.25   0.0020000
  123.98  153.05  119.94   0.0020000
  129.33   98.78  111.50   0.0020000
  125.21   95.34 -120.46   0.0020000
 -113.66   91.23  157.28   0.0020000
   60.55   83.37 -100.01   0.0020000
  144.86   79.65 -166.43   0.0020000
  -51.22   81.45   -3.36   0.0020000
   -7.92   36.90  -55.86   0.0020000
  -56.61  147.60    3.44   0.0020000
 -100.50  166.19 -109.90   0.0020000
  -55.14   81.38 -106.30   0.0020000
  -66.27  114.65   46.33   0.0020000
 -121.03  101.34 -149.71   0.0020000
   58.93  150.41  171.88   0.0020000
 -132.53  120.75   40.02   0.0020000
 -104.75  111.49 -179.89   0.0020000
 -110.31  101.48   90.38   0.0020000
  122.29   73.58 -107.84   0.0020000
 -117.55   70.70 -167.20   0.0020000
  -55.89   72.29 -171.21   0.0020000
  -55.70   50.54  148.70   0.0020000
  118.06   33.98   71.09   0.0020000
 -136.32  149.87  156.10   0.0020000
  -51.15  108.89   40.97   0.0020000
  -50.87  139.38  -84.24   0.0020000
  122.54  100.59 -129.20   0.0020000
 -176.43   61.20 -152.83   0.0020000
 -111.36   83.30  -74.37   0.0020000
  -62.27  144.77   47.85   0.0020000
  120.49   44.20  129.78   0.0020000
 -158.87  157.44  132.87   0.0020000
  -58.15   49.15  -50.78   0.0020000
  -63.72  157.31  -12.02   0.0020000
 -140.27  165.85  -29.67   0.0020000
  131.47   88.03  -57.83   0.0020000
  -57.70   99.99 -126.98   0.0020000
  -56.01  100.66  113.97   0.0020000
  140.41  150.96 -156.03   0.0020000
 -163.31  126.90  -93.55   0.0020000
 -113.33  103.14  122.26   0.0020000
 -129.25  129.93  106.33   0.0020000
  -58.40  125.85  -84.43   0.0020000
 -162.89  139.49  -44.05   0.0020000
  125.58  109.63    2.41   0.0020000
  100.70  157.90  151.60   0.0020000
  -18.60  129.32   35.37   0.0020000
 -159.96  139.36  -99.77   0.0020000
  124.70   75.47  -51.94   0.0020000
 -154.84  148.65 -161.40   0.0020000
   67.85   73.76   86.63   0.0020000
 -171.34  166.65  179.33   0.0020000
 -125.28  123.53  -67.04   0.0020000
   -1.50  129.79   78.23   0.0020000
  125.09   84.69   63.14   0.0020000
  -56.02  107.49 -136.77   0.0020000
  -53.78   13.69 -117.26   0.0020000
 -103.67  147.43   68.45   0.0020000
  -54.60   40.95  169.70   0.0020000
   64.84   79.77 -154.77   0.0020000
  -91.80   41.14   37.91   0.0020000
  125.23  168.12 -111.42   0.0020000
  -57.14   68.58 -175.90   0.0020000
  124.50  103.59 -133.46   0.0020000
 -111.76   69.70  154.93   0.0020000
  158.64  160.79   92.74   0.0020000
  159.38  143.86  160.62   0.0020000
  -49.34   64.64   -4.51   0.0020000
  -18.79   27.58  140.72   0.0020000
  -61.43   20.21   70.31   0.0020000
  129.56  112.01    2.63   0.0020000
  -82.36  175.75   27.77   0.0020000
  -54.84   90.88 -120.24   0.0020000
  -55.38   86.80 -177.36   0.0020000
 -126.45   61.15 -178.17   0.0020000
  124.67   98.57 -178.62   0.0020000
 -110.73   94.59   87.16   0.0020000
  -40.46  130.81  111.77   0.0020000
  -58.09  102.33  113.67   0.0020000
  126.68   47.76  130.23   0.0020000
  134.10  138.55  146.44   0.0020000
 -166.60   30.68 -128.78   0.0020000
   60.35  112.54 -171.57   0.0020000
  -54.34   86.18   62.68   0.0020000
 -131.75   62.93   80.42   0.0020000
  -55.65   84.76 -166.35   0.0020000
  126.50   89.59   12.11   0.0020000
  -45.74  156.45   10.98   0.0020000
  111.52   90.65 -103.53   0.0020000
  -55.74   86.54  175.68   0.0020000
   63.58  145.44  177.49   0.0020000
  -53.79   15.70 -176.62   0.0020000
  -55.18   88.62 -112.90   0.0020000
  -58.19  132.05  110.76   0.0020000
  -53.74  108.38   18.58   0.0020000
   95.98   68.08  -13.00   0.0020000
  125.49   81.11   18.03   0.0020000
  -56.53   95.16   56.03   0.0020000
  -44.06   99.66  -86.08   0.0020000
   74.80  168.34   65.05   0.0020000
 -161.43   29.70   46.98   0.0020000
  -50.61  117.35   71.20   0.0020000
 -112.98   76.49   89.09   0.0020000
  -56.06  151.55   69.39   0.0020000
   64.06  111.16 -170.52   0.0020000
  -54.73   96.69 -123.38   0.0020000
  124.39  104.15  -57.84   0.0020000
   86.18   19.14   42.64   0.0020000
   65.63  104.56 -143.39   0.0020000
   45.16   36.94   81.05   0.0020000
  -48.88  159.49  -52.24   0.0020000
   86.60   99.39   30.67   0.0020000
  121.99  131.90  176.40   0.0020000
   64.25   85.12   12.11   0.0020000
  138.16  158.70  -44.17   0.0020000
    0.40   49.58 -131.87   0.0020000
  135.72  125.04   29.94   0.0020000
  120.50  129.54 -130.59   0.0020000
 -115.12   87.15   47.05   0.0020000
  -56.35  115.00  111.54   0.0020000
   69.83  101.12  -98.76   0.0020000
   92.47   14.24 -143.10   0.0020000
 -114.82   90.10  175.65   0.0020000
  -53.30  102.24   -7.76   0.0020000
 -141.06   46.00   84.22   0.0020000
  131.58  102.64   40.88   0.0020000
 -152.23   20.41  -79.54   0.0020000
  124.58   88.42  112.23   0.0020000
  -57.97   98.80   60.15   0.0020000
  124.62  107.84  172.49   0.0020000
  128.33  113.21  -61.37   0.0020000
  123.77   70.35 -170.46   0.0020000
  122.27  154.87   -6.29   0.0020000
  -50.74   90.31 -118.89   0.0020000
  120.97   85.91  127.33   0.0020000
  -71.14  169.33  -20.44   0.0020000
  -55.67   96.10  176.70   0.0020000
  108.49  154.24  -21.17   0.0020000
  110.31   42.99  140.19   0.0020000
 -170.23   46.59  -18.01   0.0020000
 -111.93   14.74  -58.81   0.0020000
  -56.36  126.11 -111.70   0.0020000
   66.92   77.74  -87.59   0.0020000
 -144.87  164.08 -154.14   0.0020000
  -55.78   67.15  -55.73   0.0020000
   27.86   22.21  -19.46   0.0020000
  -56.11   71.30   69.49   0.0020000
 -133.56   44.69  -44.00   0.0020000
  -53.16  134.63   95.00   0.0020000
  142.23  153.90  140.40   0.0020000
  125.35   31.05  163.97   0.0020000
 -124.99  130.86  -12.29   0.0020000
  -44.34   95.14  179.46   0.0020000
  -53.69   96.61  -53.30   0.0020000
   46.47   40.03 -101.13   0.0020000
  120.25  140.53  111.97   0.0020000
  119.86   92.87  116.29   0.0020000
  110.82  165.63  102.00   0.0020000
  124.90   90.88  -61.10   0.0020000
 -120.21   92.42  -78.88   0.0020000
  119.91   50.44  131.45   0.0020000
  -45.92   73.48   70.06   0.0020000
  135.53  146.78 -156.97   0.0020000
 -137.28  150.38  -85.12   0.0020000
  122.95   56.01 -104.86   0.0020000
   46.89   35.64   77.41   0.0020000
   42.79   54.26  -38.90   0.0020000
   31.46   17.06  -22.63   0.0020000
 -170.08   27.80  115.86   0.0020000
  127.02   93.42   14.60   0.0020000
  170.51   22.53   14.03   0.0020000
   10.91   54.01 -140.66   0.0020000
  131.45   92.91  -48.30   0.0020000
  124.97  121.82 -101.80   0.0020000
 -174.43  132.31 -170.81   0.0020000
 -156.09   53.58  154.47   0.0020000
 -114.06   78.70   56.04   0.0020000
  128.80  100.58   59.27   0.0020000
   98.29  160.68  -31.51   0.0020000
  -55.35   79.85 -112.96   0.0020000
  -53.69   87.60 -107.40   0.0020000
   95.91  158.72  -93.23   0.0020000
  -56.93   64.36 -119.43   0.0020000
  -64.43  107.61   41.72   0.0020000
  -55.82   83.51 -164.27   0.0020000
  121.79   46.87 -115.34   0.0020000
  -17.71  176.24 -147.22   0.0020000
   32.81  144.82  146.82   0.0020000
  105.62  100.65 -172.57   0.0020000
  -56.59  121.66 -177.11   0.0020000
  117.70  139.44 -132.84   0.0020000
  -55.01   73.87   65.90   0.0020000
 -114.46   99.13  160.20   0.0020000
  141.12  136.70  -13.43   0.0020000
  127.61  114.57  -64.95   0.0020000
 -117.58  164.19  113.17   0.0020000
  -53.71   67.48   10.75   0.0020000
  123.32  113.41   59.17   0.0020000
   57.63   67.76 -159.08   0.0020000
  119.93  141.36  171.64   0.0020000
 -134.13   28.43  -38.80   0.0020000
  124.52  104.95  -17.80   0.0020000
   -7.63    6.90 -102.76   0.0020000
   14.82   46.74  162.07   0.0020000
  154.63   32.20   20.10   0.0020000
 -122.51   43.72 -172.81   0.0020000
  131.33   80.05    9.42   0.0020000
   71.18  101.83   96.86   0.0020000
    4.31  103.43  -27.51   0.0020000
  -55.01   83.10   52.14   0.0020000
  -54.46  106.70  114.48   0.0020000
   11.37  173.24 -178.14   0.0020000
 -130.36  152.92  101.47   0.0020000
  143.27   15.58 -136.29   0.0020000
   67.07   92.63  -73.03   0.0020000
  -68.58  102.97  164.79   0.0020000
  115.09   38.36   75.96   0.0020000
  135.52   14.28   -7.44   0.0020000
   64.67   98.79   39.80   0.0020000
  114.74   33.06   15.67   0.0020000
  123.97  100.23 -171.71   0.0020000
  129.54   22.89  -67.49   0.0020000
  122.70  109.54 -130.33   0.0020000
 -130.14   46.80  -45.05   0.0020000
 -131.38   55.32  134.55   0.0020000
  125.35   83.63   64.66   0.0020000
  -63.56   66.88 -165.20   0.0020000
  -47.17   94.46  125.46   0.0020000
  127.00   79.91   61.29   0.0020000
  -54.17   99.94  -10.53   0.0020000
  -59.17  136.57   -5.84   0.0020000
    1.24   41.48  117.56   0.0020000
  -55.00  113.86   83.75   0.0020000
  164.77    8.51  -95.57   0.0020000
  -55.21   85.44  128.33   0.0020000
  -56.86   58.29    8.16   0.0020000
  -32.10  151.81  147.55   0.0020000
 -164.48  145.63  -48.91   0.0020000
  125.99   13.57  123.30   0.0020000
  -56.07  108.61 -127.73   0.0020000
   -1.08  112.54 -138.87   0.0020000
  154.59  120.73  -70.98   0.0020000
  -46.19  163.07   67.16   0.0020000
 -131.99  150.38  -19.49   0.0020000
  -71.64   64.76   20.33   0.0020000
 -157.06  157.15  -45.66   0.0020000
  129.09   37.07  -92.40   0.0020000
  -55.18   68.15  136.87   0.0020000
  -43.92   80.94   -4.45   0.0020000
  128.62  102.13 -117.92   0.0020000
  -28.23   31.22   24.36   0.0020000
  110.56   12.10 -101.56   0.0020000
  112.88   88.29 -173.19   0.0020000
 -140.91   31.02  147.99   0.0020000
 -114.54   79.82  173.85   0.0020000
   96.16  114.13  106.00   0.0020000
  123.60  165.97 -125.62   0.0020000
 -174.51  114.96   14.02   0.0020000
  137.24   66.75   91.75   0.0020000
  -13.55   44.08  108.35   0.0020000
  122.91  169.21  -66.42   0.0020000
  127.29   88.79  -50.04   0.0020000
  -58.81  113.73  -11.17   0.0020000
   97.26   66.57  -22.35   0.0020000
  -47.10  117.25   61.43   0.0020000
  -55.24  111.98   51.46   0.0020000
 -122.59   92.99  -74.73   0.0020000
TEXTURE AT STRAIN =    2.0000
   1.154   3.546   0.244  <-- length of average ellipsoid axes for phase
 -157.00   90.07   90.01  <-- Euler angles of average ellipsoid axes for phase
B       500
   49.34  143.87  -16.32   0.0020000
  137.02   18.74   60.19   0.0020000
  107.78   16.48   30.34   0.0020000
  126.46   89.12   58.62   0.0020000
  126.60   82.48    4.50   0.0020000
  -31.85    2.66 -129.07   0.0020000
  -52.98   82.09  -52.08   0.0020000
  146.05  170.62    7.21   0.0020000
  -54.35   74.48  129.05   0.0020000
 -126.53  161.37 -145.04   0.0020000
  -79.35  169.73  -37.94   0.0020000
    7.46  176.51  108.39   0.0020000
  -54.18   71.41   57.29   0.0020000
  -53.64  110.83  171.30   0.0020000
  -36.96  134.12  -35.62   0.0020000
