TEXTURE AT STRAIN =    0.2000
   1.039   1.172   0.821  <-- length of average ellipsoid axes for phase
   90.00   90.13   89.87  <-- Euler angles of average ellipsoid axes for phase
B      1944
 -116.42   89.92  -65.61   0.0002897
   35.72    9.13  -30.01   0.0002948
  -90.99   92.44  -66.99   0.0002988
   43.18    7.67   12.01   0.0003027
   49.21    8.73    8.79   0.0002926
  -59.60   96.74  -66.78   0.0002868
 -115.71   85.60  -72.86   0.0008200
   21.99   16.70  -15.49   0.0008031
  -92.00   91.22  -75.59   0.0008091
   24.51   15.02   31.19   0.0008152
   28.66   15.52   30.03   0.0007836
  -60.49  100.15  -74.58   0.0007982
 -114.18   81.20  -81.32   0.0010277
   16.73   25.63   -9.09   0.0011066
  -92.80   89.72  -85.13   0.0010815
   18.32   23.97   37.87   0.0010887
   20.36   24.08   39.21   0.0010928
  -62.04  103.94  -83.41   0.0010036
 -111.89   77.08  -90.47   0.0009159
   14.33   35.05   -5.21   0.0008998
  -93.22   88.21  -94.87   0.0009410
  -74.83   99.61  -94.15   0.0009508
   16.39   33.29   44.24   0.0009064
  -64.35  107.74  -92.75   0.0009199
 -108.94   73.42 -100.24   0.0005697
   13.12   44.77   -2.22   0.0005513
  -93.31   86.62 -104.70   0.0005712
  -79.05   99.08 -104.56   0.0005717
   14.22   42.88   47.64   0.0005550
  -67.39  111.17 -102.59   0.0005698
 -105.41   70.22 -110.51   0.0002754
   12.55   54.67    0.43   0.0002823
  -93.08   84.95 -114.56   0.0002919
  -82.33   98.23 -114.89   0.0002861
   12.97   52.70   50.28   0.0002739
  -71.35  114.25 -112.95   0.0002721
 -101.40   67.62 -121.21   0.0001311
  -98.40   72.31 -122.08   0.0001436
  -92.45   83.33 -124.47   0.0001331
  -84.99   97.24 -125.12   0.0001306
  -77.89  111.32 -124.03   0.0001304
  -75.96  116.61 -123.79   0.0001227
  -96.98   65.65 -132.13   0.0000733
  -94.77   71.41 -132.77   0.0000899
  -91.36   81.98 -134.46   0.0000859
  -86.94   96.26 -135.27   0.0000875
  -82.56  111.08 -134.99   0.0000848
  -81.25  118.16 -135.05   0.0000659
  -92.35   64.39 -142.95   0.0000682
  -91.12   70.77 -143.39   0.0000808
  -89.90   81.02 -144.51   0.0000872
  -88.66   95.11 -145.36   0.0000937
  -86.99  110.26 -145.85   0.0000782
  -86.89  118.75 -146.54   0.0000580
   42.33    9.82  -36.57   0.0002940
  -90.93   90.90  -66.75   0.0002990
   50.79    8.44    4.38   0.0002988
   55.26    9.58    2.75   0.0002997
  -59.56   95.37  -67.33   0.0002938
   48.96   10.74   14.21   0.0002902
   30.59   17.50  -23.90   0.0008505
  -91.79   87.84  -75.01   0.0008274
   34.13   15.87   21.56   0.0008173
   37.14   16.44   21.69   0.0008139
  -60.17   97.17  -75.70   0.0007959
   35.30   18.00   28.77   0.0008249
   25.64   26.38  -17.56   0.0010759
  -92.33   84.21  -84.10   0.0011586
   28.03   24.90   28.03   0.0011045
   28.76   24.92   31.22   0.0010994
  -61.07   99.35  -84.95   0.0011123
  -57.06  101.24  -84.96   0.0010395
   23.17   35.66  -13.30   0.0009639
  -92.48   80.26  -93.30   0.0009526
  -73.65   92.37  -94.79   0.0009848
   24.27   34.06   37.13   0.0009637
  -62.23  101.58  -94.49   0.0009193
  -58.30  104.53  -94.35   0.0009465
   21.84   45.22   -9.77   0.0006010
   22.10   46.66   -2.99   0.0005925
  -77.18   89.96 -104.82   0.0006079
   21.66   43.64   41.34   0.0005889
  -63.74  103.97 -104.24   0.0005667
  -60.17  107.96 -104.01   0.0005893
   21.21   54.96   -6.47   0.0002940
   20.46   55.97   -0.20   0.0003033
  -78.76   87.55 -114.81   0.0003053
   20.43   53.49   44.02   0.0002969
  -65.43  106.47 -114.12   0.0002812
  -62.81  111.06 -114.02   0.0002847
   21.05   64.78   -3.20   0.0001357
   19.96   65.69    2.50   0.0001468
  -79.17   85.34 -124.76   0.0001380
   20.51   63.49   44.60   0.0001335
   20.77   63.21   49.63   0.0001314
  -66.25  113.82 -124.39   0.0001238
  -86.28   64.17 -131.91   0.0000673
   19.97   75.48    5.27   0.0000800
  -78.80   82.99 -134.67   0.0000764
  -74.12   99.13 -135.00   0.0000793
   19.76   73.17   53.14   0.0000761
  -70.35  116.08 -135.10   0.0000595
  -81.36   64.05 -143.45   0.0000559
   20.37   85.20    8.14   0.0000650
  -77.70   80.23 -144.65   0.0000685
  -76.28   96.40 -145.19   0.0000718
   19.70   82.98   55.56   0.0000627
  -75.17  117.91 -146.15   0.0000489
  -90.89   89.45  -66.31   0.0002975
   57.40    9.12   -2.27   0.0002989
   60.65   10.29   -2.65   0.0002964
  -59.51   93.99  -67.65   0.0002996
   54.01   11.40    9.20   0.0002978
   48.33   10.37   17.46   0.0002975
  -91.79   84.75  -73.96   0.0008744
   42.24   16.59   13.37   0.0008423
   44.41   17.16   14.50   0.0008227
  -59.79   94.11  -76.33   0.0008227
   42.24   18.69   21.96   0.0008248
   38.13   18.02   28.67   0.0008669
  -92.85   79.13  -82.17   0.0011249
   36.20   25.68   19.42   0.0011918
   35.97   25.46   24.30   0.0011240
   37.78   26.26   24.90   0.0011171
   36.31   27.02   29.32   0.0011606
   33.37   26.68   34.95   0.0011064
   31.31   37.02  -13.64   0.0010214
   34.21   35.78   19.16   0.0009898
   31.06   34.49   30.89   0.0009964
   33.47   35.01   31.00   0.0009709
   32.90   35.75   34.61   0.0009539
   30.78   35.72   39.55   0.0010030
   28.35   45.60  -10.18   0.0006313
  -75.26   81.52 -103.98   0.0006089
   28.43   44.10   34.95   0.0006049
   30.36   44.26   36.38   0.0005853
   30.68   44.81   39.14   0.0005771
   29.26   45.11   43.62   0.0006148
   27.16   54.99   -6.96   0.0003055
   29.93   56.50    4.46   0.0003067
   28.00   54.18   34.91   0.0003038
   27.67   53.95   41.75   0.0002941
   29.11   54.19   43.45   0.0002846
   28.40   54.74   47.60   0.0002942
   26.76   64.78   -3.63   0.0001431
   27.21   65.64    3.92   0.0001529
   29.15   64.89   28.47   0.0001437
   26.42   64.01   45.08   0.0001407
   27.79   63.91   47.89   0.0001422
   27.88   64.41   51.52   0.0001328
   26.90   74.70   -0.09   0.0000749
   26.28   75.23    5.74   0.0000898
   28.71   75.71   18.69   0.0000886
   26.83   74.11   44.66   0.0000976
   26.33   74.06   52.69   0.0000886
   27.53   74.06   55.44   0.0000705
   27.39   84.47    3.69   0.0000541
   26.50   85.13    8.52   0.0000707
   26.87   85.62   15.98   0.0000620
   28.49   84.37   39.07   0.0000685
   26.21   84.11   55.24   0.0000682
   27.12   83.87   59.54   0.0000463
   63.47    9.70   -8.40   0.0002964
   65.76   10.89   -7.77   0.0002978
  -59.46   92.64  -67.74   0.0002993
   58.84   11.91    4.37   0.0003038
   54.02   10.78   11.77   0.0003052
  -90.84   88.18   -5.68   0.0003033
   49.64   17.12    5.83   0.0008877
   51.28   17.68    7.64   0.0008545
   51.54   18.63    9.88   0.0008448
   48.82   19.11   15.42   0.0008514
   45.32   18.28   21.50   0.0008689
  -91.91   82.10  -12.48   0.0009020
   43.71   26.14   11.26   0.0011642
   43.00   25.74   17.43   0.0012196
   44.69   26.55   18.14   0.0011582
   43.32   27.15   22.42   0.0011735
   40.91   26.62   27.49   0.0012376
   43.02   28.46   34.87   0.0011719
   41.59   36.22    8.84   0.0010585
   38.01   34.62   24.14   0.0010092
   40.09   35.11   24.79   0.0010078
   39.84   35.61   27.96   0.0010157
   38.36   35.44   32.25   0.0010131
   38.10   35.96   38.88   0.0010700
   38.70   46.15   -0.92   0.0006350
   36.07   44.29   26.37   0.0005992
   36.60   44.36   30.98   0.0005883
   37.33   44.64   33.17   0.0005860
   36.72   44.73   36.84   0.0005937
   35.81   44.52   42.29   0.0006324
   35.42   54.79   -4.77   0.0002891
   35.96   54.48   22.35   0.0002814
   34.73   54.26   35.09   0.0002783
   35.45   54.35   38.43   0.0002814
   35.55   54.43   41.65   0.0002795
   35.07   54.32   46.12   0.0002839
   34.44   64.40   -3.62   0.0001322
   35.40   65.01   10.89   0.0001393
   34.69   64.39   33.85   0.0001366
   34.30   64.55   43.06   0.0001392
   34.72   64.54   46.63   0.0001388
   34.68   64.50   50.46   0.0001268
   34.34   74.72   -0.06   0.0000772
   34.20   74.73    7.28   0.0000896
   35.00   74.90   25.52   0.0000947
   34.30   74.68   43.23   0.0001070
   34.20   74.88   51.40   0.0000938
   34.43   74.80   55.34   0.0000723
   34.38   85.04    4.33   0.0000526
   34.20   85.01    9.50   0.0000642
   34.19   85.12   18.04   0.0000570
   34.76   84.95   38.38   0.0000643
   34.18   85.05   53.16   0.0000630
   34.25   85.16   60.29   0.0000449
   70.75   11.37  -12.82   0.0002952
  -59.41   91.35  -67.61   0.0003006
   63.62   12.27   -0.43   0.0003052
   59.60   11.07    6.16   0.0003102
  -90.81   87.01   -4.89   0.0003113
   69.27   10.17   45.72   0.0003037
   58.14   18.03    0.72   0.0009015
   58.06   18.96    3.30   0.0008761
   55.39   19.31    8.78   0.0008867
   52.54   18.34   14.20   0.0008972
  -92.13   79.81  -10.59   0.0009037
   56.82   17.46   58.46   0.0009241
   50.34   25.81   10.05   0.0012003
   51.71   26.57   11.10   0.0012664
   50.53   26.99   15.13   0.0012318
   48.76   26.35   19.57   0.0012516
   50.27   27.92   27.54   0.0013059
   51.04   26.23   63.27   0.0012210
   46.02   34.61   15.83   0.0010853
   47.14   34.95   17.92   0.0010449
   47.17   35.20   20.68   0.0010651
   46.54   35.01   24.16   0.0010872
   46.13   34.90   30.67   0.0010703
   48.64   35.89   59.44   0.0011060
   45.34   44.46   15.03   0.0006204
   45.07   44.47   22.55   0.0005829
   45.22   44.57   25.77   0.0005857
   45.40   44.57   28.77   0.0005958
   45.38   44.42   33.80   0.0005975
   45.63   44.90   50.18   0.0006269
   45.06   54.62    8.40   0.0002478
   44.88   54.52   22.63   0.0002441
   44.79   54.62   29.45   0.0002490
   44.97   54.66   33.36   0.0002573
   45.05   54.55   37.99   0.0002476
   44.86   54.53   46.95   0.0002486
   44.62   64.80    0.50   0.0001035
   44.81   64.72   19.00   0.0001139
   44.63   64.70   30.66   0.0001170
   44.63   64.83   37.83   0.0001172
   44.76   64.79   42.70   0.0001095
   44.72   64.68   49.25   0.0001005
   44.53   74.90    0.73   0.0000640
   44.52   75.02   11.77   0.0000757
   44.63   74.91   27.62   0.0000838
   44.51   74.90   39.48   0.0000912
   44.52   75.03   47.54   0.0000797
   44.59   74.97   53.42   0.0000609
   44.51   85.16    4.38   0.0000397
   44.46   85.09   11.56   0.0000438
   44.46   85.20   21.52   0.0000453
   44.53   85.12   36.51   0.0000460
   44.45   85.08   49.21   0.0000442
   44.47   85.23   58.21   0.0000358
  -59.38   90.06  -67.30   0.0002979
   68.41   12.52   -5.28   0.0003059
   65.18   11.26    0.54   0.0003133
  -90.72   86.18   -3.95   0.0003160
   74.96   10.55   39.94   0.0003104
   75.75   11.76   42.11   0.0003027
   64.73   19.15   -3.51   0.0009245
   62.16   19.34    1.85   0.0009171
   60.00   18.26    6.59   0.0009399
  -92.40   77.91   -8.37   0.0009301
   64.07   17.63   50.99   0.0009249
   65.17   18.26   53.52   0.0009455
   59.17   26.41    3.44   0.0012552
   58.24   26.64    7.12   0.0013516
   57.18   25.98   10.91   0.0013208
   58.28   27.41   20.02   0.0013213
   58.56   26.01   55.28   0.0013727
   58.26   25.76   61.86   0.0012775
   55.65   34.88    9.12   0.0011514
   55.77   34.96   11.84   0.0011231
   55.93   34.93   14.77   0.0011386
   55.77   34.80   21.99   0.0011472
   56.32   35.19   51.22   0.0011263
   55.65   34.83   65.23   0.0011510
   55.25   44.78   11.26   0.0006241
   55.33   44.89   15.23   0.0006001
   55.49   44.90   18.90   0.0006006
   55.47   44.77   25.17   0.0005957
   55.30   44.89   41.96   0.0005967
   55.47   44.82   62.89   0.0006244
   55.06   54.79   10.06   0.0002189
   54.87   54.86   18.34   0.0002191
   54.99   54.92   23.40   0.0002260
   55.00   54.83   29.44   0.0002227
   54.82   54.88   39.41   0.0002083
   55.10   54.97   57.27   0.0002143
   54.59   65.20    6.38   0.0000798
   54.64   64.79   17.88   0.0000860
   54.41   64.87   26.85   0.0000907
   54.36   64.96   33.89   0.0000888
   54.35   64.98   42.04   0.0000772
   54.29   65.23   52.66   0.0000720
   54.06   75.51    3.95   0.0000527
   54.23   75.59   14.73   0.0000655
   54.30   74.98   26.23   0.0000734
   54.10   74.90   36.19   0.0000779
   53.99   75.12   45.21   0.0000643
   54.01   75.28   54.14   0.0000495
   53.96   85.38    5.18   0.0000175
   54.02   85.49   14.25   0.0000195
   54.15   85.66   24.09   0.0000222
   54.20   85.36   34.74   0.0000226
   54.06   84.90   45.81   0.0000210
   53.95   85.12   55.74   0.0000169
   73.27   12.67  -10.22   0.0003023
   70.80   11.35   -5.16   0.0003133
  -90.64   85.48   -2.89   0.0003181
   80.65   10.85   34.15   0.0003133
   80.78   12.06   36.99   0.0003103
  -59.36   88.88   -6.81   0.0003066
   69.21   19.27   -5.46   0.0009663
   67.79   18.10   -1.42   0.0009671
  -92.56   76.47   -5.92   0.0009734
   71.57   17.69   43.27   0.0009448
   72.47   18.42   45.98   0.0009471
   71.62   19.23   49.39   0.0009770
   66.64   26.24   -1.82   0.0013371
   66.27   25.67    1.46   0.0014407
   66.94   27.09   12.56   0.0013899
   66.68   25.68   46.91   0.0013840
   66.83   25.70   52.79   0.0014431
   67.26   26.17   54.91   0.0013473
   65.66   35.22    1.28   0.0012396
   65.80   35.21    4.80   0.0011978
   65.63   35.10   13.80   0.0012064
   65.77   35.21   42.45   0.0012126
   65.59   35.13   54.03   0.0012089
   65.59   35.16   58.19   0.0012342
   65.27   45.12    4.27   0.0006635
   65.35   45.11    8.82   0.0006289
   65.24   45.03   17.01   0.0006168
   65.29   45.18   34.72   0.0006085
   65.39   45.06   51.38   0.0006257
   65.20   45.02   59.76   0.0006589
   64.49   54.75    7.00   0.0002137
   64.46   54.81   13.19   0.0002165
   64.37   54.91   21.36   0.0002139
   64.17   55.17   32.28   0.0002025
   64.73   55.04   47.61   0.0001999
   64.79   54.71   58.39   0.0002090
   63.99   64.76    6.03   0.0000758
   63.86   64.63   15.47   0.0000847
   63.70   64.87   24.74   0.0000863
   63.59   65.21   34.71   0.0000778
   63.62   65.48   45.12   0.0000688
   63.87   65.37   55.63   0.0000677
   63.53   75.56    5.08   0.0000614
   63.49   75.26   15.14   0.0000790
   63.54   74.94   25.18   0.0000864
   63.50   75.03   35.15   0.0000848
   63.46   75.27   45.11   0.0000702
   63.49   75.50   55.08   0.0000539
   63.44   85.38    5.01   0.0000338
   63.43   85.52   15.02   0.0000408
   63.41   85.57   25.00   0.0000416
   63.43   85.39   35.00   0.0000424
   63.46   85.20   45.00   0.0000394
   63.45   85.23   55.00   0.0000286
   76.48   11.37  -10.93   0.0003071
  -90.52   85.06   -1.75   0.0003164
   86.36   11.07   28.33   0.0003163
   85.85   12.29   31.81   0.0003119
  -59.36   87.89   -6.10   0.0003144
   78.20   12.72   44.75   0.0003137
   75.88   17.93   -9.79   0.0010026
   78.47   21.33    5.93   0.0009941
   79.40   17.71   35.20   0.0009905
   80.01   18.55   38.11   0.0009651
   78.74   19.26   41.98   0.0009867
   76.55   19.14   46.86   0.0010264
   75.77   25.56   -8.44   0.0014159
   76.00   27.01    5.84   0.0015100
   75.66   25.55   37.69   0.0014567
   75.93   25.68   42.98   0.0014591
   76.03   25.96   45.48   0.0015313
   75.71   25.95   48.39   0.0014357
   75.55   35.40   -5.13   0.0013264
   75.37   35.34    6.24   0.0012724
   75.48   35.40   33.33   0.0012902
   75.40   35.35   42.96   0.0013164
   75.41   35.38   47.10   0.0013126
   75.45   35.42   50.49   0.0013271
   75.04   45.07   -0.98   0.0007091
   74.76   45.15    9.03   0.0006673
   75.29   45.21   27.88   0.0006552
   75.20   45.04   40.43   0.0006628
   75.02   45.04   48.21   0.0006900
   75.06   45.11   53.09   0.0007152
   74.11   54.54    3.31   0.0002325
   73.81   54.86   13.27   0.0002288
   73.93   55.03   24.84   0.0002228
   74.76   54.60   37.03   0.0002146
   74.63   54.35   47.19   0.0002197
   74.30   54.39   55.50   0.0002297
   73.59   64.33    5.29   0.0000908
   73.37   64.64   15.29   0.0000985
   73.30   64.91   25.36   0.0000941
   73.44   64.96   35.41   0.0000847
   73.67   64.61   45.50   0.0000799
   73.77   64.24   55.50   0.0000808
   73.08   74.85    5.30   0.0000777
   73.17   74.77   15.28   0.0000987
   73.16   74.90   25.24   0.0001046
   73.15   75.07   35.21   0.0000971
   73.13   75.16   45.21   0.0000789
   73.07   75.08   55.25   0.0000654
   72.98   85.43    5.09   0.0000408
   72.93   85.39   15.12   0.0000536
   72.94   85.41   25.11   0.0000508
   72.99   85.46   35.07   0.0000488
   73.03   85.48   45.04   0.0000459
   73.03   85.47   55.05   0.0000318
  -90.39   84.85   -0.57   0.0003090
   92.10   11.23   22.47   0.0003149
   90.94   12.45   26.59   0.0003179
  -59.38   87.12   -5.20   0.0003146
   83.19   12.70   39.65   0.0003207
   82.21   11.33   43.24   0.0003188
   85.92   21.36    0.74   0.0010217
   87.52   17.74   26.81   0.0010096
   87.71   18.67   30.03   0.0010189
   86.03   19.26   34.35   0.0009946
   84.11   18.99   38.91   0.0010218
   84.18   17.78   41.60   0.0010609
   85.24   27.04    0.31   0.0014660
   85.12   25.59   27.93   0.0015799
   85.32   25.72   32.72   0.0015487
   85.27   25.87   35.39   0.0015453
   85.13   25.81   38.10   0.0016146
   85.34   25.59   41.62   0.0015026
   85.10   35.49    0.41   0.0013958
   85.12   35.49   23.97   0.0013619
   85.12   35.48   31.97   0.0014074
   85.14   35.50   35.93   0.0014420
   85.15   35.51   39.54   0.0014047
   85.21   35.49   45.18   0.0014050
   84.63   45.18    1.51   0.0007618
   85.43   45.04   19.41   0.0007283
   85.08   44.93   29.73   0.0007290
   84.99   44.97   36.40   0.0007442
   84.97   44.96   41.64   0.0007494
   84.72   45.03   49.76   0.0007645
   84.24   54.57    4.18   0.0002534
   85.23   54.43   15.81   0.0002491
   85.34   54.18   26.27   0.0002449
   84.85   54.05   36.07   0.0002417
   84.49   54.10   44.27   0.0002472
   84.09   54.36   53.83   0.0002515
   84.01   64.16    5.24   0.0001006
   84.36   64.15   15.18   0.0001050
   84.70   63.93   25.16   0.0000967
   84.64   63.74   35.24   0.0000925
   84.28   63.77   45.23   0.0000915
   83.98   63.97   55.22   0.0000920
   83.71   74.30    5.23   0.0000796
   83.69   74.39   15.22   0.0001005
   83.69   74.40   25.21   0.0001019
   83.70   74.30   35.22   0.0000932
   83.72   74.18   45.24   0.0000778
   83.73   74.20   55.24   0.0000700
   83.25   85.61    5.13   0.0000349
   83.24   85.55   15.13   0.0000462
   83.26   85.54   25.12   0.0000431
   83.28   85.58   35.11   0.0000390
   83.30   85.63   45.12   0.0000359
   83.29   85.65   55.13   0.0000266
  -65.64   84.22   -3.10   0.0003071
  -62.59   83.38   -4.47   0.0003165
  -59.41   86.52   -4.18   0.0003210
 -117.24   83.68   65.29   0.0003181
 -114.45   84.80   64.12   0.0003246
  -90.24   84.84   60.64   0.0003204
   95.82   17.81   18.23   0.0010319
  -62.26   77.51   -7.01   0.0010337
  -59.40   77.72   -8.69   0.0010521
 -117.75   78.54   69.16   0.0010199
   92.52   17.68   32.95   0.0010418
  -91.08   73.71   61.65   0.0010763
   94.63   25.59   18.10   0.0015104
   94.80   25.77   22.32   0.0016631
   94.64   25.88   25.10   0.0016397
   94.61   25.75   27.71   0.0016048
   94.86   25.59   31.70   0.0016488
   94.50   27.16   55.22   0.0015339
   94.74   35.48   14.49   0.0014721
   94.82   35.51   20.98   0.0014736
   94.84   35.50   24.72   0.0015273
   94.83   35.49   28.48   0.0015122
   94.84   35.49   35.63   0.0014467
   94.85   35.51   55.46   0.0014606
   95.32   45.01    9.86   0.0008318
   95.08   44.93   18.74   0.0008247
   95.04   44.99   24.45   0.0008219
   94.93   44.94   30.51   0.0008072
   94.61   45.07   40.18   0.0007944
   95.31   45.23   55.63   0.0008181
   96.08   54.42    5.61   0.0002837
   95.68   54.17   15.72   0.0002805
   95.26   54.04   24.66   0.0002761
   94.89   54.14   33.72   0.0002701
   95.15   54.48   43.84   0.0002722
