TEXTURE AT STRAIN =    0.2000
   1.023   1.180   0.827  <-- length of average ellipsoid axes for phase
   90.03   90.76   89.58  <-- Euler angles of average ellipsoid axes for phase
B      1944
   29.62    9.85  -25.03   0.0002897
   34.82   10.52  -27.76   0.0002948
  -91.20   91.84  -67.13   0.0002988
   52.63    7.79    2.17   0.0003027
   47.73    6.74    9.83   0.0002926
   39.35    6.77   20.15   0.0002868
   19.03   17.77  -12.99   0.0008200
   22.47   18.46  -13.78   0.0008031
  -92.09   90.82  -75.84   0.0008091
   29.88   15.03   25.50   0.0008152
   25.67   14.03   33.03   0.0007836
   22.97   13.94   37.31   0.0007982
   15.17   27.14   -7.21   0.0010277
   18.05   28.10   -6.98   0.0011066
  -92.56   89.59  -85.47   0.0010815
  -77.28   96.50  -84.55   0.0010887
   19.30   23.05   40.60   0.0010928
   17.72   22.78   43.80   0.0010036
   13.71   37.15   -3.45   0.0009159
 -103.16   81.29  -93.67   0.0008998
  -92.65   88.77  -95.24   0.0009410
  -80.01   96.71  -94.83   0.0009508
  -69.74  103.67  -93.30   0.0009064
   15.88   32.19   47.05   0.0009199
 -107.02   73.80 -100.78   0.0005697
 -100.36   79.88 -103.54   0.0005513
  -92.36   88.04 -105.01   0.0005712
  -82.76   96.77 -105.22   0.0005717
  -74.09  104.83 -103.92   0.0005550
  -68.11  110.27 -102.76   0.0005698
 -103.84   71.30 -110.79   0.0002754
  -98.31   78.72 -113.33   0.0002823
  -92.13   87.33 -114.86   0.0002919
  -84.99   96.65 -115.43   0.0002861
  -78.23  105.61 -114.71   0.0002739
  -72.32  112.94 -113.36   0.0002721
 -100.56   69.01 -120.93   0.0001311
  -96.27   77.23 -123.27   0.0001436
  -91.39   86.45 -124.82   0.0001331
  -86.81   96.32 -125.49   0.0001306
  -81.85  106.10 -125.25   0.0001304
  -77.28  114.96 -124.32   0.0001227
  -96.75   66.95 -131.39   0.0000733
  -93.71   75.78 -133.42   0.0000899
  -91.19   85.45 -134.69   0.0000859
  -88.23   95.75 -135.52   0.0000875
  -85.29  106.34 -135.73   0.0000848
  -82.47  115.96 -135.48   0.0000659
  -92.33   65.45 -142.15   0.0000682
  -91.46   74.55 -143.51   0.0000808
  -90.33   84.54 -144.61   0.0000872
  -89.61   94.69 -145.50   0.0000937
  -88.54  105.79 -146.18   0.0000782
  -87.53  115.88 -146.64   0.0000580
   40.41   10.99  -33.41   0.0002940
  -91.16   90.50  -66.90   0.0002990
   57.94    8.63   -3.11   0.0002988
   54.46    7.53    3.17   0.0002997
   47.25    7.45   12.31   0.0002938
   35.93   10.27   28.59   0.0002902
   29.68   18.87  -21.14   0.0008505
  -92.07   87.68  -75.31   0.0008274
   37.67   16.07   17.77   0.0008173
   34.35   14.95   24.65   0.0008139
   32.23   14.80   28.37   0.0007959
   26.94   18.12   39.01   0.0008249
   25.25   28.21  -14.42   0.0010759
  -92.16   84.72  -84.59   0.0011586
  -75.63   91.99  -84.76   0.0011045
   27.66   24.06   32.87   0.0010994
   26.54   23.76   35.72   0.0011123
   23.21   27.06   44.51   0.0010395
   23.30   38.25   -9.47   0.0009639
  -91.18   82.02  -94.08   0.0009526
  -78.24   90.50  -94.95   0.0009848
   25.18   33.84   36.75   0.0009637
   24.10   33.29   40.11   0.0009193
   22.00   34.74   45.69   0.0009465
  -98.33   71.84 -100.68   0.0006010
  -89.35   79.99 -103.75   0.0005925
  -79.67   89.04 -105.09   0.0006079
  -70.96   97.61 -104.82   0.0005889
  -64.51  103.97 -104.03   0.0005667
   21.89   43.29   46.94   0.0005893
  -94.15   69.77 -111.01   0.0002940
  -87.31   78.42 -113.57   0.0003033
  -80.47   87.73 -115.06   0.0003053
  -73.75   96.95 -115.32   0.0002969
  -67.53  105.54 -114.44   0.0002812
  -63.30  111.26 -114.05   0.0002847
  -89.98   67.90 -121.39   0.0001357
  -85.32   76.96 -123.53   0.0001468
  -80.60   86.57 -124.92   0.0001380
  -75.70   96.44 -125.46   0.0001335
  -71.06  106.06 -125.09   0.0001314
  -67.09  113.83 -124.52   0.0001238
  -85.58   66.21 -131.96   0.0000673
  -82.85   75.61 -133.68   0.0000800
  -80.11   85.53 -134.82   0.0000764
  -77.23   95.90 -135.48   0.0000793
  -74.35  106.02 -135.56   0.0000761
  -71.54  115.20 -135.27   0.0000595
  -81.51   65.25 -142.38   0.0000559
  -80.27   74.60 -143.89   0.0000650
  -79.34   84.67 -144.74   0.0000685
  -78.45   95.04 -145.47   0.0000718
  -77.48  105.67 -145.95   0.0000627
  -76.71  115.72 -146.36   0.0000489
  -91.10   89.27  -66.47   0.0002975
   62.94    9.34   -8.10   0.0002989
   60.50    8.22   -2.82   0.0002964
   54.05    8.08    5.59   0.0002996
   42.01   10.57   22.41   0.0002978
   45.84   11.32   21.04   0.0002975
  -92.25   84.84  -74.28   0.0008744
   44.56   16.84   10.90   0.0008423
   41.94   15.70   17.28   0.0008227
   40.19   15.54   20.69   0.0008227
   34.50   18.15   31.15   0.0008248
   36.59   18.95   31.65   0.0008669
  -92.69   79.99  -82.80   0.0011249
   37.84   26.23   16.64   0.0011918
   34.95   24.75   26.08   0.0011240
   34.10   24.49   28.80   0.0011171
   31.29   26.25   35.50   0.0011606
   32.17   27.71   38.06   0.0011064
   32.10   37.53  -12.56   0.0010214
  -75.68   84.94  -94.16   0.0009898
   31.92   34.47   30.67   0.0009964
   31.04   33.99   34.26   0.0009709
   30.16   34.25   37.43   0.0009539
   29.73   36.94   43.08   0.0010030
   30.18   47.21   -8.20   0.0006313
  -76.99   81.38 -104.07   0.0006089
   31.43   44.84   30.12   0.0006049
   29.42   43.85   38.50   0.0005853
   28.93   43.75   41.41   0.0005771
   28.25   46.49   47.67   0.0006148
   29.00   57.12   -4.00   0.0003055
  -76.60   78.14 -113.89   0.0003067
  -68.67   89.16 -114.99   0.0003038
   29.00   54.04   41.15   0.0002941
   28.25   53.65   45.36   0.0002846
   27.38   56.07   51.86   0.0002942
   28.33   67.17    0.17   0.0001431
  -74.62   76.16 -123.81   0.0001529
  -69.44   87.04 -125.09   0.0001437
   30.61   64.53   37.41   0.0001407
   28.23   63.70   48.78   0.0001422
   27.45   63.94   53.12   0.0001328
   28.14   77.22    4.42   0.0000749
  -72.22   74.80 -133.91   0.0000898
  -69.38   85.56 -134.94   0.0000886
  -66.36   96.32 -135.47   0.0000976
   29.54   73.59   48.64   0.0000886
   27.97   73.39   56.21   0.0000705
   27.92   86.10    7.39   0.0000541
  -69.39   73.79 -144.20   0.0000707
  -68.61   84.49 -144.85   0.0000620
  -67.85   95.34 -145.46   0.0000685
  -66.74  106.09 -145.81   0.0000682
   29.02   82.79   58.56   0.0000463
   67.89    9.92  -13.07   0.0002964
   66.24    8.81   -8.54   0.0002978
   60.18    8.62   -0.48   0.0002993
   48.02   10.75   16.24   0.0003038
   51.29   11.54   15.44   0.0003052
  -91.02   88.17   -5.84   0.0003033
   51.14   17.36    4.34   0.0008877
   49.08   16.24   10.29   0.0008545
   47.53   16.10   13.56   0.0008448
   42.20   17.98   22.99   0.0008514
   43.63   18.80   24.18   0.0008689
   48.74   19.65   31.11   0.0009020
   44.23   26.37   10.31   0.0011642
   41.88   25.08   19.48   0.0012196
   41.23   24.92   22.13   0.0011582
   39.82   25.55   26.11   0.0011735
   39.57   26.81   29.81   0.0012376
   42.07   27.61   35.29   0.0011719
   40.46   35.87    7.09   0.0010585
   38.35   34.48   24.71   0.0010092
   37.76   34.24   28.31   0.0010078
   37.54   34.33   30.70   0.0010157
   37.24   34.99   34.00   0.0010131
   38.33   35.88   38.94   0.0010700
   37.11   45.21   -2.99   0.0006350
   36.99   44.36   25.45   0.0005992
   35.75   43.95   33.24   0.0005883
   35.73   43.97   35.90   0.0005860
   35.79   44.05   38.41   0.0005937
   36.03   44.52   42.74   0.0006324
   35.20   54.39   -5.74   0.0002891
   35.97   54.49   18.59   0.0002814
   34.92   54.05   35.89   0.0002783
   34.71   54.05   40.72   0.0002814
   34.81   54.06   43.64   0.0002795
   34.90   54.04   47.06   0.0002839
   34.42   64.30   -2.95   0.0001322
   34.72   64.62    8.06   0.0001393
   35.11   64.35   32.60   0.0001366
   34.28   64.36   44.64   0.0001392
   34.29   64.38   48.85   0.0001388
   34.39   64.34   52.26   0.0001268
   34.19   74.70    1.65   0.0000772
   34.22   74.72    7.50   0.0000896
   34.70   74.96   21.30   0.0000947
   34.76   74.54   43.25   0.0001070
   34.12   74.78   53.56   0.0000938
   34.15   74.77   57.74   0.0000723
   34.21   85.10    6.85   0.0000526
   34.24   85.11   11.13   0.0000642
   34.48   85.23   17.74   0.0000570
   35.09   85.12   34.16   0.0000643
   34.78   84.74   54.02   0.0000630
   34.23   85.11   62.81   0.0000449
   71.88    9.30  -14.21   0.0002952
   65.94    9.06   -6.16   0.0003006
   54.06   10.84   10.00   0.0003052
   56.82   11.66    9.73   0.0003102
  -90.92   87.21   -5.03   0.0003113
   72.91   10.40   41.88   0.0003037
   56.13   16.60    3.27   0.0009015
   54.67   16.49    6.53   0.0008761
   50.26   17.71   14.37   0.0008867
   51.05   18.51   16.27   0.0008972
   55.32   19.56   24.57   0.0009037
   57.74   17.63   57.75   0.0009241
   49.02   25.14   12.43   0.0012003
   48.60   25.09   14.96   0.0012664
   48.19   25.28   17.39   0.0012318
   47.90   25.81   20.48   0.0012516
   49.32   26.73   27.21   0.0013059
   50.80   26.09   64.01   0.0012210
   46.01   34.34   16.91   0.0010853
   45.94   34.33   20.23   0.0010449
   46.07   34.39   22.33   0.0010651
   46.24   34.42   24.60   0.0010872
   46.33   34.51   29.72   0.0010703
   46.93   34.81   59.05   0.0011060
   45.60   44.30   15.51   0.0006204
   45.25   44.25   23.34   0.0005829
   45.37   44.31   26.43   0.0005857
   45.54   44.35   29.25   0.0005958
   45.59   44.27   33.61   0.0005975
   45.31   44.30   47.90   0.0006269
   44.99   54.46    5.59   0.0002478
   44.99   54.36   23.16   0.0002441
   44.79   54.42   30.59   0.0002490
   44.94   54.46   34.39   0.0002573
   45.07   54.42   38.57   0.0002476
   44.96   54.35   45.87   0.0002486
   44.48   64.61   -1.12   0.0001035
   44.59   64.69   16.80   0.0001139
   44.55   64.56   31.36   0.0001170
   44.44   64.71   39.45   0.0001172
   44.56   64.68   44.20   0.0001095
   44.60   64.59   49.80   0.0001005
   44.30   74.89    1.39   0.0000640
   44.25   74.92   10.17   0.0000757
   44.32   75.01   25.51   0.0000838
   44.29   74.80   40.28   0.0000912
   44.22   75.00   49.49   0.0000797
   44.30   74.97   55.23   0.0000609
   44.26   85.29    6.60   0.0000397
   44.26   85.21   12.49   0.0000438
   44.22   85.20   20.28   0.0000453
   44.28   85.32   33.89   0.0000460
   44.22   85.12   49.84   0.0000442
   44.20   85.29   60.37   0.0000358
   71.45    9.42  -11.61   0.0002979
   60.17   10.86    3.66   0.0003059
   62.46   11.71    3.90   0.0003133
  -90.92   86.27   -4.08   0.0003160
   78.07   10.78   36.65   0.0003104
   77.57    9.70   40.05   0.0003027
   61.93   16.73   -0.73   0.0009245
   58.65   17.44    5.37   0.0009171
   58.90   18.18    7.86   0.0009399
   62.36   19.38   18.18   0.0009301
   64.60   17.73   50.87   0.0009249
   63.35   16.80   55.96   0.0009455
   56.93   25.11    6.39   0.0012552
   56.96   25.17    8.23   0.0013516
   57.03   25.27   10.60   0.0013208
   57.51   25.94   19.06   0.0013213
   58.08   25.66   56.98   0.0013727
   57.03   25.10   64.18   0.0012775
   56.04   34.76    9.31   0.0011514
   56.14   34.84   11.77   0.0011231
   56.28   34.87   14.50   0.0011386
   56.21   34.76   20.64   0.0011472
   56.26   34.86   50.33   0.0011263
   56.04   34.75   65.67   0.0011510
   55.36   44.67   11.84   0.0006241
   55.46   44.73   15.60   0.0006001
   55.60   44.77   19.10   0.0006006
   55.63   44.68   24.62   0.0005957
   55.36   44.70   40.30   0.0005967
   55.63   44.73   63.42   0.0006244
   54.43   54.53   11.07   0.0002189
   54.17   54.75   19.75   0.0002191
   54.36   54.66   24.58   0.0002260
   54.47   54.46   29.87   0.0002227
   54.25   54.40   38.53   0.0002083
   54.17   54.72   55.69   0.0002143
   53.04   65.04    5.14   0.0000798
   53.44   64.75   18.77   0.0000860
   53.34   64.95   28.37   0.0000907
   53.39   64.90   35.45   0.0000888
   53.30   64.43   42.30   0.0000772
   53.05   64.58   51.67   0.0000720
  -10.84   86.25 -165.35   0.0000527
   -7.94   95.72 -160.99   0.0000655
   -3.57  105.58 -154.90   0.0000734
  -14.53   63.27 -115.46   0.0000779
  -13.64   71.37 -111.83   0.0000643
  -12.58   78.46 -108.62   0.0000495
  -10.26   93.58 -172.87   0.0000175
   -9.09  100.79 -169.48   0.0000195
   -7.20  108.59 -165.43   0.0000222
   53.22   85.65   33.90   0.0000226
  -11.06   76.14 -120.85   0.0000210
  -10.98   85.59 -116.47   0.0000169
   66.35   10.83   -2.76   0.0003023
   68.21   11.70   -2.05   0.0003133
  -90.76   85.68   -3.01   0.0003181
   83.40   11.07   31.23   0.0003133
   83.36   10.02   34.15   0.0003103
   76.78    9.69   43.13   0.0003066
   67.24   17.24   -3.83   0.0009663
   67.14   17.89   -0.93   0.0009671
   69.85   19.16   12.20   0.0009734
   71.84   17.71   43.55   0.0009448
   70.89   16.91   48.21   0.0009471
   69.52   16.85   51.53   0.0009770
   66.45   25.38   -1.87   0.0013371
   66.56   25.39    0.66   0.0014407
   66.49   25.55   11.53   0.0013899
   66.59   25.46   48.45   0.0013840
   66.37   25.30   54.08   0.0014431
   66.39   25.33   56.23   0.0013473
   66.00   35.24    0.99   0.0012396
   66.10   35.27    4.33   0.0011978
   66.00   35.15   12.44   0.0012064
   66.10   35.27   42.43   0.0012126
   65.94   35.16   54.38   0.0012089
   65.95   35.17   58.17   0.0012342
   64.85   44.71    4.82   0.0006635
   64.98   44.65    9.01   0.0006289
   64.91   44.54   16.20   0.0006168
   64.59   44.74   34.13   0.0006085
   64.88   44.70   52.62   0.0006257
   64.64   44.76   60.80   0.0006589
   -0.68   81.70 -144.47   0.0002137
  -27.97   38.69  -94.88   0.0002165
  -24.31   44.23  -94.49   0.0002139
  -19.04   53.09  -94.07   0.0002025
  -11.02   65.61  -90.99   0.0001999
   -4.90   75.17  -87.06   0.0002090
   -0.68   84.92 -156.96   0.0000758
    3.81   92.58 -152.95   0.0000847
  -13.60   48.87 -107.05   0.0000863
  -11.87   56.70 -104.71   0.0000778
   -8.84   66.07 -102.94   0.0000688
   -4.78   75.96 -100.78   0.0000677
   -0.50   88.38 -165.84   0.0000614
    2.91   97.14 -162.51   0.0000790
    7.59  105.50 -157.90   0.0000864
   -4.86   61.28 -114.51   0.0000848
   -4.30   70.23 -110.96   0.0000702
   -2.89   79.34 -108.47   0.0000539
   -0.64   92.72 -172.24   0.0000338
    0.60  101.75 -169.39   0.0000408
    3.24  110.58 -165.78   0.0000416
    0.91   64.85 -124.52   0.0000424
   -0.55   74.01 -118.77   0.0000394
   -0.94   83.36 -115.04   0.0000286
   74.02   11.65   -8.06   0.0003071
  -90.59   85.28   -1.85   0.0003164
   88.90   11.30   25.61   0.0003163
   89.27   10.28   28.09   0.0003119
   81.99    9.87   38.01   0.0003144
   72.57   10.75   50.79   0.0003137
   75.62   17.69   -9.91   0.0010026
   77.72   18.98    6.67   0.0009941
   79.53   17.66   35.70   0.0009905
   78.79   16.96   39.97   0.0009651
   77.52   16.90   43.21   0.0009867
   75.92   17.11   46.92   0.0010264
   76.05   25.64   -9.28   0.0014159
   75.90   25.61    5.62   0.0015100
   75.93   25.62   38.72   0.0014567
   75.94   25.58   43.51   0.0014591
   75.94   25.60   45.74   0.0015313
   75.96   25.63   47.80   0.0014357
   75.69   35.48   -5.79   0.0013264
   75.52   35.37    5.64   0.0012724
   75.65   35.47   34.40   0.0012902
   75.59   35.41   43.30   0.0013164
   75.61   35.43   47.00   0.0013126
   75.62   35.48   50.11   0.0013271
   74.56   44.09   -1.43   0.0007091
   74.05   44.02    8.19   0.0006673
   74.45   44.23   28.84   0.0006552
   74.11   44.31   42.39   0.0006628
   74.09   44.33   49.36   0.0006900
   74.41   44.18   53.42   0.0007152
  -27.10   29.66  -91.58   0.0002325
  -20.75   37.03  -93.94   0.0002288
  -13.33   47.05  -95.50   0.0002228
   -5.35   58.36  -94.33   0.0002146
   -0.05   66.47  -92.56   0.0002197
    4.35   72.71  -90.25   0.0002297
   10.68   84.13 -158.73   0.0000908
   -4.81   39.56 -110.93   0.0000985
   -3.10   48.46 -108.81   0.0000941
   -0.06   58.28 -107.08   0.0000847
    4.40   67.49 -105.64   0.0000799
    7.89   76.24 -102.71   0.0000808
   12.49   88.63 -165.71   0.0000777
   14.77   97.23 -161.65   0.0000987
    6.26   51.61 -119.93   0.0001046
    6.69   60.59 -116.42   0.0000971
    8.34   69.67 -113.64   0.0000789
   11.05   79.52 -109.71   0.0000654
   13.44   90.85 -172.44   0.0000408
   15.26  101.37 -166.47   0.0000536
   16.12  110.48 -162.56   0.0000508
   11.89   64.27 -124.03   0.0000488
   12.32   72.66 -120.16   0.0000459
   12.92   81.34 -116.74   0.0000318
  -90.40   85.08   -0.64   0.0003090
   94.54   11.48   19.82   0.0003149
   95.32   10.49   21.87   0.0003179
   87.10    9.96   33.00   0.0003146
   78.78   10.64   44.36   0.0003207
   79.85   11.56   45.93   0.0003188
   85.81   18.89    1.38   0.0010217
   87.60   17.63   27.37   0.0010096
   87.05   17.00   31.28   0.0010189
   85.83   16.91   34.46   0.0009946
   84.56   17.04   37.72   0.0010218
   84.13   17.59   41.13   0.0010609
   85.31   25.75    0.93   0.0014660
   85.28   25.75   28.87   0.0015799
   85.34   25.74   33.05   0.0015487
   85.33   25.75   35.28   0.0015453
   85.33   25.77   37.45   0.0016146
   85.41   25.77   40.80   0.0015026
   85.06   35.48    1.01   0.0013958
   85.09   35.49   25.39   0.0013619
   85.17   35.48   32.23   0.0014074
   85.18   35.50   35.77   0.0014420
   85.16   35.51   39.09   0.0014047
   85.24   35.50   44.17   0.0014050
   83.88   43.67    1.34   0.0007618
   84.88   43.64   21.65   0.0007283
   84.08   43.86   31.67   0.0007290
   84.53   43.73   36.69   0.0007442
   84.79   43.68   41.05   0.0007494
   84.73   43.64   48.08   0.0007645
  -16.55   29.65  -94.39   0.0002534
   -5.06   41.26  -97.75   0.0002491
    1.21   50.01  -97.73   0.0002449
    6.01   57.41  -96.40   0.0002417
  -43.54   15.23  -14.96   0.0002472
  -27.84   21.49  -27.26   0.0002515
    2.98   30.74 -114.95   0.0001006
    5.40   40.41 -113.04   0.0001050
    7.92   49.76 -110.84   0.0000967
   11.57   58.76 -109.26   0.0000925
   13.74   67.05 -105.39   0.0000915
   17.09   75.27 -101.72   0.0000920
   20.51   88.28 -165.26   0.0000796
   16.12   42.84 -125.80   0.0001005
   15.89   51.83 -121.76   0.0001019
   15.97   61.08 -117.60   0.0000932
   17.70   70.32 -114.08   0.0000778
   18.67   79.43 -109.70   0.0000700
   21.43   91.61 -171.48   0.0000349
   22.30  101.07 -166.77   0.0000462
   24.22  110.18 -162.08   0.0000431
   20.12   64.92 -124.83   0.0000390
   20.20   73.64 -120.10   0.0000359
   20.73   82.48 -115.94   0.0000266
  100.28   11.63   13.91   0.0003071
  101.46   10.65   15.53   0.0003165
   92.19    9.96   28.01   0.0003210
   84.92   10.49   38.01   0.0003181
   85.62   11.44   39.99   0.0003246
  -90.21   85.09   60.58   0.0003204
   95.95   17.67   18.66   0.0010319
   95.56   17.05   22.25   0.0010337
   94.24   16.92   25.57   0.0010521
   93.06   17.00   28.71   0.0010199
   92.50   17.59   32.40   0.0010418
  -90.01   76.31   61.37   0.0010763
   94.58   25.77   19.03   0.0015104
   94.67   25.78   22.66   0.0016631
   94.66   25.76   24.85   0.0016397
   94.65   25.76   27.06   0.0016048
   94.72   25.77   30.89   0.0016488
   94.67   25.77   56.55   0.0015339
   94.66   35.50   15.67   0.0014721
   94.77   35.51   21.10   0.0014736
   94.76   35.50   24.47   0.0015273
   94.74   35.49   27.92   0.0015122
   94.79   35.49   34.41   0.0014467
   94.82   35.51   57.02   0.0014606
   95.10   43.64   11.87   0.0008318
   95.10   43.67   19.13   0.0008247
   95.38   43.72   23.60   0.0008219
   95.76   43.82   28.40   0.0008072
  -62.77   21.08   12.38   0.0007944
 -148.83   32.91  134.85   0.0008181
 -152.21   21.66   87.43   0.0002837
 -136.21   15.19   74.86   0.0002805
 -114.10   11.43   55.80   0.0002761
  -73.14   10.31   18.05   0.0002701
  -35.09   14.54  -16.23   0.0002722
