TEXTURE AT STRAIN =    0.2000
   1.089   1.106   0.829  <-- length of average ellipsoid axes for phase
    1.71    0.00    0.00  <-- Euler angles of average ellipsoid axes for phase
B      1944
   -3.44   14.52   13.38   0.0002897
   -0.92   14.88   20.91   0.0002948
    1.91   14.81   28.11   0.0002988
    3.23   14.26   36.78   0.0003027
    0.09   13.63   49.87   0.0002926
   -3.84   13.88   63.75   0.0002868
   -0.12   22.92    9.99   0.0008200
    1.41   23.45   18.63   0.0008031
    3.45   23.47   26.73   0.0008091
    5.11   23.20   35.06   0.0008152
    5.14   22.52   44.90   0.0007836
    1.37   22.14   58.51   0.0007982
    0.72   31.77   11.89   0.0010277
    2.79   32.06   20.78   0.0011066
    4.40   32.20   28.43   0.0010815
    5.28   31.87   34.22   0.0010887
    6.49   31.49   40.68   0.0010928
    6.46   30.59   51.18   0.0010036
    3.11   38.92   13.83   0.0009159
    4.44   38.75   23.63   0.0008998
    4.88   38.79   29.21   0.0009410
    5.09   38.70   33.12   0.0009508
    5.28   38.51   37.78   0.0009064
    5.93   38.30   46.84   0.0009199
    4.83   46.29   15.20   0.0005697
    5.13   46.23   26.28   0.0005513
    5.05   46.20   29.42   0.0005712
    4.96   46.22   31.99   0.0005717
    4.90   46.26   34.95   0.0005550
    5.05   46.26   43.19   0.0005698
    4.79   55.67   20.43   0.0002754
    5.05   56.23   27.61   0.0002823
    5.04   56.26   29.34   0.0002919
    5.01   56.27   30.87   0.0002861
    5.00   56.25   32.61   0.0002739
    5.11   55.74   38.51   0.0002721
   24.94  156.57 -161.21   0.0001311
   50.88  149.98 -139.71   0.0001436
   58.97  145.92 -135.25   0.0001331
  -48.64  146.35 -166.79   0.0001306
  -39.94  150.60 -160.42   0.0001304
  -15.29  156.31 -139.02   0.0001227
   36.38  166.76 -149.16   0.0000733
   64.49  158.40 -122.81   0.0000899
   74.25  151.99 -115.36   0.0000859
  -63.64  151.93  176.18   0.0000875
  -53.72  158.26 -176.22   0.0000848
  -25.13  166.54 -149.53   0.0000659
   90.50  173.12  -94.56   0.0000682
   94.79  161.75  -91.07   0.0000808
   93.65  153.91  -93.82   0.0000872
  -83.02  153.92  154.67   0.0000937
  -82.98  161.84  152.95   0.0000782
  -89.57  173.42  145.51   0.0000580
    7.07   14.23   12.86   0.0002940
    9.22   14.53   20.74   0.0002990
   11.58   14.45   28.39   0.0002988
   12.39   13.97   37.58   0.0002997
    9.66   13.50   50.27   0.0002938
    6.73   13.72   63.18   0.0002902
   10.39   22.70    9.51   0.0008505
   11.65   23.22   18.51   0.0008274
   13.51   23.30   26.80   0.0008173
   15.08   23.08   35.12   0.0008139
   15.28   22.47   44.70   0.0007959
   12.07   22.04   57.84   0.0008249
   10.89   31.71   12.14   0.0010759
   12.95   31.95   20.97   0.0011586
   14.44   32.14   28.48   0.0011045
   15.29   31.86   33.98   0.0010994
   16.61   31.55   40.18   0.0011123
   16.70   30.63   50.61   0.0010395
   13.17   38.94   14.48   0.0009639
   14.53   38.71   23.90   0.0009526
   14.90   38.79   29.10   0.0009848
   15.11   38.71   32.85   0.0009637
   15.36   38.55   37.41   0.0009193
   16.01   38.32   46.56   0.0009465
   14.89   46.30   16.22   0.0006010
   15.18   46.22   26.34   0.0005925
   15.10   46.19   29.29   0.0006079
   15.01   46.21   31.77   0.0005889
   14.94   46.26   34.68   0.0005667
   15.10   46.25   43.21   0.0005893
   14.96   55.90   21.24   0.0002940
   15.13   56.31   27.59   0.0003033
   15.10   56.34   29.23   0.0003053
   15.05   56.35   30.70   0.0002969
   15.03   56.34   32.38   0.0002812
   15.13   55.89   38.49   0.0002847
   35.43  156.60 -160.72   0.0001357
   60.79  150.01 -139.78   0.0001468
   68.76  146.03 -135.34   0.0001380
  -38.88  146.19 -167.00   0.0001335
  -30.16  150.56 -160.64   0.0001314
   -5.29  156.39 -139.00   0.0001238
   47.00  166.74 -148.54   0.0000673
   74.62  158.39 -122.70   0.0000800
   84.23  152.02 -115.40   0.0000764
  -53.79  151.88  176.05   0.0000793
  -43.93  158.22 -176.42   0.0000761
  -15.30  166.58 -149.69   0.0000595
  113.07  172.46  -82.00   0.0000559
  104.65  161.69  -91.23   0.0000650
  103.60  153.95  -93.89   0.0000685
  -73.03  153.86  154.67   0.0000718
  -73.01  161.76  152.93   0.0000627
  -79.22  173.33  145.86   0.0000489
   17.82   13.90   12.09   0.0002975
   19.39   14.19   20.53   0.0002989
   21.33   14.16   28.61   0.0002964
   22.10   13.79   37.84   0.0002996
   20.35   13.41   49.58   0.0002978
   17.97   13.50   61.94   0.0002975
   21.11   22.44    8.86   0.0008744
   21.92   23.01   18.40   0.0008423
   23.58   23.18   26.87   0.0008227
   25.17   23.05   35.01   0.0008227
   25.82   22.54   44.01   0.0008248
   23.29   21.96   56.64   0.0008669
   21.11   31.61   12.30   0.0011249
   23.11   31.82   21.09   0.0011918
   24.45   32.09   28.33   0.0011240
   25.31   31.90   33.54   0.0011171
   26.76   31.65   39.60   0.0011606
   27.11   30.71   49.94   0.0011064
   23.25   38.93   15.06   0.0010214
   24.61   38.67   24.04   0.0009898
   24.90   38.81   28.80   0.0009964
   25.12   38.74   32.41   0.0009709
   25.46   38.61   36.93   0.0009539
   26.17   38.37   46.29   0.0010030
   24.96   46.29   17.22   0.0006313
   25.22   46.19   26.22   0.0006089
   25.13   46.17   29.01   0.0006049
   25.04   46.19   31.42   0.0005853
   24.98   46.24   34.30   0.0005771
   25.17   46.22   43.39   0.0006148
   25.09   56.00   21.87   0.0003055
   25.21   56.31   27.46   0.0003067
   25.16   56.34   29.03   0.0003038
   25.12   56.36   30.45   0.0002941
   25.09   56.35   32.10   0.0002846
   25.19   55.96   38.54   0.0002942
   45.97  156.61 -160.19   0.0001431
   70.66  150.05 -139.73   0.0001529
   78.55  146.15 -135.27   0.0001437
  -29.11  146.03 -167.16   0.0001407
  -20.37  150.54 -160.85   0.0001422
    4.77  156.49 -138.93   0.0001328
   57.61  166.71 -147.93   0.0000749
   84.66  158.37 -122.69   0.0000898
   94.16  152.05 -115.50   0.0000886
  -43.95  151.83  175.91   0.0000976
  -34.11  158.20 -176.60   0.0000886
   -5.45  166.66 -149.83   0.0000705
  121.67  172.33  -83.39   0.0000541
  114.41  161.66  -91.47   0.0000707
  113.50  154.00  -94.01   0.0000620
  -63.06  153.82  154.65   0.0000685
  -63.11  161.69  152.83   0.0000682
  -69.11  173.23  145.97   0.0000463
   28.81   13.58   11.08   0.0002964
   29.62   13.90   20.28   0.0002978
   31.28   13.97   28.63   0.0002993
   32.45   13.74   37.47   0.0003038
   31.86   13.39   48.07   0.0003052
   29.84   13.30   60.07   0.0003033
   32.05   22.19    8.02   0.0008877
   32.18   22.83   18.27   0.0008545
   33.65   23.13   26.87   0.0008448
   35.33   23.12   34.65   0.0008514
   36.53   22.70   43.09   0.0008689
   58.17   81.17 -149.52   0.0009020
   31.36   31.47   12.35   0.0011642
   33.24   31.70   21.11   0.0012196
   34.42   32.07   27.95   0.0011582
   35.32   31.97   32.96   0.0011735
   36.92   31.78   39.04   0.0012376
   37.57   30.85   49.34   0.0011719
   33.34   38.90   15.49   0.0010585
   34.65   38.65   23.94   0.0010092
   34.89   38.85   28.33   0.0010078
   35.13   38.80   31.84   0.0010157
   35.57   38.70   36.40   0.0010131
   36.38   38.46   46.14   0.0010700
   35.02   46.25   18.01   0.0006350
   35.24   46.15   25.93   0.0005992
   35.15   46.14   28.60   0.0005883
   35.06   46.16   30.95   0.0005860
   35.01   46.22   33.85   0.0005937
   35.23   46.18   43.80   0.0006324
   35.19   56.00   22.28   0.0002891
   35.27   56.28   27.23   0.0002814
   35.22   56.31   28.75   0.0002783
   35.17   56.33   30.13   0.0002814
   35.15   56.32   31.77   0.0002795
   35.26   55.96   38.72   0.0002839
   56.45  156.60 -159.72   0.0001322
   80.51  150.11 -139.60   0.0001393
   88.17  146.12 -135.10   0.0001366
  -19.25  145.63 -167.19   0.0001392
  -10.54  150.52 -161.03   0.0001388
   14.90  156.60 -138.79   0.0001268
   68.08  166.67 -147.47   0.0000772
   94.61  158.36 -122.76   0.0000896
  104.04  152.09 -115.63   0.0000947
  -34.08  151.79  175.79   0.0001070
  -24.25  158.20 -176.75   0.0000938
    4.48  166.75 -149.90   0.0000723
  130.42  172.25  -84.65   0.0000526
  124.12  161.65  -91.78   0.0000642
  125.16  153.93  -92.33   0.0000570
  -54.76  153.59  152.85   0.0000643
  -53.24  161.66  152.70   0.0000630
  -59.12  173.15  145.96   0.0000449
   21.55   73.46 -151.62   0.0002952
   31.04   74.06 -151.31   0.0003006
   40.50   74.41 -151.03   0.0003052
   49.95   74.46 -150.77   0.0003102
   59.37   74.20 -150.50   0.0003113
   68.76   73.62 -150.22   0.0003037
   22.43   80.66 -152.57   0.0009015
   31.62   81.80 -151.91   0.0008761
   40.78   82.47 -151.30   0.0008867
   49.92   82.64 -150.72   0.0008972
   59.06   82.21 -150.14   0.0009037
   68.16   81.16 -149.51   0.0009241
   41.62   31.32   12.25   0.0012003
   43.33   31.60   20.99   0.0012664
   44.35   32.09   27.39   0.0012318
   45.33   32.07   32.31   0.0012516
   47.07   31.93   38.62   0.0013059
   47.99   31.01   48.95   0.0012210
   43.41   38.85   15.71   0.0010853
   44.66   38.64   23.59   0.0010449
   44.85   38.90   27.74   0.0010651
   45.13   38.87   31.20   0.0010872
   45.67   38.81   35.91   0.0010703
   46.59   38.57   46.22   0.0011060
   45.08   46.20   18.50   0.0006204
   45.24   46.11   25.50   0.0005829
   45.16   46.09   28.09   0.0005857
   45.07   46.12   30.42   0.0005958
   45.02   46.18   33.37   0.0005975
   45.28   46.12   44.55   0.0006269
   45.24   55.97   22.45   0.0002478
   45.30   56.23   26.92   0.0002441
   45.26   56.26   28.41   0.0002490
   45.21   56.28   29.77   0.0002573
   45.18   56.27   31.40   0.0002476
   45.31   55.93   39.06   0.0002486
   66.80  156.57 -159.38   0.0001035
   90.35  150.17 -139.47   0.0001139
   97.99  146.27 -134.85   0.0001170
   -9.50  145.46 -167.14   0.0001172
   -0.66  150.51 -161.16   0.0001095
   25.10  156.70 -138.59   0.0001005
   78.30  166.61 -147.25   0.0000640
  104.48  158.36 -122.91   0.0000757
  113.89  152.13 -115.79   0.0000838
  -24.17  151.77  175.69   0.0000912
  -14.32  158.22 -176.82   0.0000797
   14.53  166.84 -149.85   0.0000609
  139.43  172.22  -85.65   0.0000397
  133.81  161.67  -92.12   0.0000438
  134.97  153.97  -92.54   0.0000453
  -44.86  153.57  152.75   0.0000460
  -43.36  161.66  152.58   0.0000442
  -49.19  173.12  145.90   0.0000358
   31.64   73.63 -151.68   0.0002979
   41.12   74.20 -151.40   0.0003059
   50.56   74.49 -151.12   0.0003133
   59.97   74.48 -150.85   0.0003160
   69.35   74.16 -150.55   0.0003104
   78.69   73.52 -150.22   0.0003027
   32.53   80.89 -152.55   0.0009245
   41.69   81.99 -151.92   0.0009171
   50.83   82.62 -151.31   0.0009399
   59.96   82.18 -150.77   0.0009301
   69.06   81.68 -150.23   0.0009249
   78.14   80.58 -149.63   0.0009455
   51.86   31.17   11.99   0.0012552
   53.35   31.54   20.68   0.0013516
   54.26   32.13   26.74   0.0013208
   55.33   32.19   31.72   0.0013213
   57.21   32.10   38.41   0.0013727
   58.31   31.19   48.83   0.0012775
   53.46   38.80   15.72   0.0011514
   54.62   38.66   23.06   0.0011231
   54.79   38.96   27.10   0.0011386
   55.11   38.95   30.56   0.0011472
   55.76   38.93   35.54   0.0011263
   56.77   38.68   46.60   0.0011510
   55.11   46.12   18.66   0.0006241
   55.22   46.05   24.98   0.0006001
   55.14   46.04   27.54   0.0006006
   55.05   46.07   29.87   0.0005957
   55.01   46.13   32.93   0.0005967
   55.29   46.06   45.67   0.0006244
   55.26   55.91   22.43   0.0002189
   55.31   56.16   26.57   0.0002191
   55.26   56.19   28.04   0.0002260
   55.21   56.21   29.39   0.0002227
   55.19   56.21   31.03   0.0002083
   55.35   55.88   39.63   0.0002143
   76.98  156.52 -159.23   0.0000798
  100.20  150.23 -139.42   0.0000860
  107.84  146.41 -134.59   0.0000907
    0.29  145.29 -166.94   0.0000888
    9.27  150.51 -161.22   0.0000772
   35.37  156.77 -138.32   0.0000720
   88.24  166.56 -147.32   0.0000527
  114.29  158.36 -123.11   0.0000655
  123.74  152.16 -115.96   0.0000734
  -14.22  151.76  175.62   0.0000779
   -4.32  158.26 -176.84   0.0000643
   24.74  166.91 -149.63   0.0000495
  148.61  172.26  -86.48   0.0000175
  143.48  161.72  -92.47   0.0000195
  144.78  154.01  -92.76   0.0000222
  -34.95  153.58  152.66   0.0000226
  -33.46  161.69  152.47   0.0000210
  -39.29  173.13  145.81   0.0000169
   41.69   73.41 -151.66   0.0003023
   51.17   73.90 -151.45   0.0003133
   60.59   74.12 -151.22   0.0003181
   69.97   74.06 -150.97   0.0003133
   79.31   73.69 -150.68   0.0003103
   88.62   73.04 -150.33   0.0003066
   42.57   80.62 -152.38   0.0009663
   51.72   81.63 -151.83   0.0009671
   60.84   82.17 -151.29   0.0009734
   69.92   82.17 -150.75   0.0009448
   78.98   81.57 -150.16   0.0009471
   88.03   80.38 -149.50   0.0009770
   44.70   92.07 -156.06   0.0013371
   53.75   93.52 -153.52   0.0014407
   60.77   94.42 -151.62   0.0013899
   67.42   94.60 -149.87   0.0013840
   76.30   94.18 -147.54   0.0014431
   86.46   92.12 -144.48   0.0013473
   63.48   38.75   15.52   0.0012396
   64.55   38.69   22.45   0.0011978
   64.71   39.03   26.46   0.0012064
   65.07   39.04   29.99   0.0012126
   65.83   39.05   35.38   0.0012089
   66.91   38.79   47.24   0.0012342
   65.11   46.05   18.53   0.0006635
   65.19   45.99   24.42   0.0006289
   65.10   45.98   26.99   0.0006168
   65.01   46.01   29.36   0.0006085
   64.99   46.07   32.60   0.0006257
   65.26   46.01   47.07   0.0006589
   65.25   55.86   22.25   0.0002137
   65.28   56.09   26.21   0.0002165
   65.23   56.12   27.68   0.0002139
   65.18   56.13   29.04   0.0002025
   65.15   56.13   30.72   0.0001999
   65.34   55.82   40.42   0.0002090
   86.98  156.45 -159.24   0.0000758
  110.07  150.29 -139.46   0.0000847
  117.74  146.53 -134.38   0.0000863
   10.12  145.16 -166.65   0.0000778
   19.26  150.51 -161.17   0.0000688
   45.71  156.79 -138.00   0.0000677
   97.94  166.51 -147.63   0.0000614
  124.08  158.37 -123.33   0.0000790
  133.59  152.18 -116.12   0.0000864
   -4.23  151.76  175.59   0.0000848
    5.74  158.30 -176.79   0.0000702
   35.09  166.96 -149.28   0.0000539
  157.83  172.38  -87.27   0.0000338
  153.15  161.79  -92.82   0.0000408
  154.59  154.04  -92.96   0.0000416
  -25.03  153.61  152.59   0.0000424
  -23.55  161.75  152.38   0.0000394
  -29.46  173.18  145.65   0.0000286
   51.75   73.47 -151.75   0.0003071
   61.18   73.91 -151.52   0.0003164
   70.56   74.07 -151.27   0.0003163
   79.88   73.94 -150.97   0.0003119
   89.18   73.52 -150.62   0.0003144
   98.48   72.83 -150.18   0.0003137
   52.61   80.73 -152.37   0.0010026
   61.72   81.69 -151.82   0.0009941
   70.79   82.16 -151.26   0.0009905
   79.83   82.07 -150.68   0.0009651
   88.85   81.38 -150.04   0.0009867
   97.90   80.12 -149.29   0.0010264
   54.36   91.72 -155.44   0.0014159
   63.29   93.27 -153.22   0.0015100
   70.51   94.19 -151.51   0.0014567
   77.65   94.41 -149.84   0.0014591
   86.69   93.92 -147.69   0.0015313
   96.83   91.53 -145.60   0.0014357
   73.47   38.72   15.13   0.0013264
   74.44   38.74   21.84   0.0012724
   74.63   39.11   25.91   0.0012902
   75.03   39.13   29.57   0.0013164
   75.88   39.17   35.47   0.0013126
   77.00   38.89   47.96   0.0013271
   75.09   45.99   18.16   0.0007091
   75.14   45.93   23.89   0.0006673
   75.04   45.92   26.52   0.0006552
   74.96   45.94   28.96   0.0006628
   74.95   46.01   32.45   0.0006900
   75.22   45.96   48.39   0.0007152
   75.19   55.81   21.99   0.0002325
   75.22   56.02   25.89   0.0002288
   75.17   56.03   27.38   0.0002228
   75.11   56.05   28.77   0.0002146
   75.08   56.05   30.49   0.0002197
   75.29   55.75   41.29   0.0002297
   96.85  156.38 -159.37   0.0000908
  119.99  150.33 -139.56   0.0000985
  127.68  146.63 -134.24   0.0000941
   19.99  145.05 -166.35   0.0000847
   29.27  150.50 -160.98   0.0000799
   56.06  156.78 -137.66   0.0000808
  107.47  166.45 -148.10   0.0000777
  133.86  158.37 -123.57   0.0000987
  143.47  152.18 -116.25   0.0001046
    5.80  151.78  175.57   0.0000971
   15.85  158.34 -176.72   0.0000789
   45.51  166.97 -148.86   0.0000654
  166.98  172.55  -88.14   0.0000408
  162.84  161.87  -93.14   0.0000536
  164.42  154.06  -93.15   0.0000508
  -15.09  153.65  152.52   0.0000488
  -13.62  161.83  152.30   0.0000459
  -19.69  173.25  145.44   0.0000318
   61.75   73.46 -151.82   0.0003090
   71.14   73.84 -151.57   0.0003149
   80.47   73.95 -151.27   0.0003179
   89.76   73.76 -150.91   0.0003146
   99.04   73.30 -150.47   0.0003207
  108.34   72.60 -149.94   0.0003188
   62.59   80.77 -152.34   0.0010217
   71.65   81.66 -151.78   0.0010096
   80.68   82.06 -151.19   0.0010189
   89.70   81.06 -150.66   0.0009946
   98.79   80.32 -149.97   0.0010218
  108.01   79.07 -149.13   0.0010609
   64.00   91.45 -154.83   0.0014660
   72.91   93.08 -152.88   0.0015799
   80.44   93.99 -151.30   0.0015487
   87.96   94.20 -149.70   0.0015453
   97.00   93.62 -147.75   0.0016146
  106.89   91.51 -145.28   0.0015026
   83.43   38.72   14.61   0.0013958
   84.31   38.81   21.33   0.0013619
   84.54   39.18   25.53   0.0014074
   84.99   39.22   29.37   0.0014420
   85.91   39.28   35.78   0.0014047
   87.05   38.98   48.53   0.0014050
   85.06   45.94   17.67   0.0007618
   85.08   45.88   23.47   0.0007283
   84.99   45.86   26.19   0.0007290
   84.91   45.89   28.73   0.0007442
   84.91   45.95   32.51   0.0007494
   85.17   45.92   49.32   0.0007645
   85.11   55.77   21.71   0.0002534
   85.14   55.94   25.65   0.0002491
   85.09   55.94   27.19   0.0002449
   85.03   55.95   28.63   0.0002417
   84.99   55.96   30.42   0.0002472
   85.20   55.71   42.04   0.0002515
  106.64  156.29 -159.57   0.0001006
  129.95  150.37 -139.63   0.0001050
  137.69  146.70 -134.16   0.0000967
   29.90  144.99 -166.07   0.0000925
   39.28  150.49 -160.73   0.0000915
   66.37  156.73 -137.37   0.0000920
  116.93  166.40 -148.64   0.0000796
  143.65  158.37 -123.78   0.0001005
  153.38  152.17 -116.37   0.0001019
   15.87  151.81  175.59   0.0000932
   25.97  158.38 -176.62   0.0000778
   55.92  166.95 -148.46   0.0000700
  176.04  172.75  -89.08   0.0000349
  172.56  161.94  -93.43   0.0000462
  174.29  154.08  -93.30   0.0000431
   -5.13  153.69  152.47   0.0000390
   -3.68  161.90  152.24   0.0000359
   -9.93  173.33  145.22   0.0000266
   71.71   73.39 -151.87   0.0003071
   81.05   73.72 -151.57   0.0003165
   90.34   73.77 -151.22   0.0003210
   99.61   73.54 -150.78   0.0003181
  108.89   73.06 -150.25   0.0003246
   62.30   72.78  -92.12   0.0003204
   72.46   80.01 -152.27   0.0010319
   81.49   80.76 -151.75   0.0010337
   90.50   81.03 -151.18   0.0010521
   99.54   80.78 -150.52   0.0010199
  108.69   80.00 -149.72   0.0010418
  117.98   78.76 -148.76   0.0010763
   73.67   91.27 -154.25   0.0015104
   82.63   92.97 -152.51   0.0016631
   90.49   93.86 -151.04   0.0016397
   98.18   94.01 -149.52   0.0016048
  107.19   93.34 -147.75   0.0016488
  116.85   91.20 -145.52   0.0015339
   93.34   38.74   14.04   0.0014721
   94.17   38.90   20.99   0.0014736
   94.48   39.26   25.35   0.0015273
   94.97   39.30   29.43   0.0015122
   95.91   39.35   36.25   0.0014467
   97.09   39.05   48.78   0.0014606
   95.00   45.90   17.13   0.0008318
   95.03   45.84   23.20   0.0008247
   94.93   45.82   26.06   0.0008219
   94.85   45.84   28.72   0.0008072
   94.87   45.91   32.77   0.0007944
   95.14   45.89   49.70   0.0008181
   95.02   55.74   21.45   0.0002837
   95.05   55.86   25.54   0.0002805
   94.99   55.86   27.15   0.0002761
   94.93   55.87   28.64   0.0002701
   94.89   55.88   30.51   0.0002722
